File: cif_pxrd_calculator/example/txt/itwotheta/li0.5tio2_Imma_36449.txt
# 2theta [deg]	I_scaled [a.u.]	Wavelength = 0.20721 Å
0.000000e+00	0.000000e+00
5.022110e-02	0.000000e+00
1.004422e-01	0.000000e+00
1.506633e-01	0.000000e+00
2.008844e-01	0.000000e+00
2.511055e-01	0.000000e+00
3.013266e-01	0.000000e+00
3.515477e-01	0.000000e+00
4.017688e-01	0.000000e+00
4.519899e-01	0.000000e+00
5.022110e-01	0.000000e+00
5.524321e-01	0.000000e+00
6.026532e-01	0.000000e+00
6.528743e-01	0.000000e+00
7.030954e-01	0.000000e+00
7.533165e-01	0.000000e+00
8.035376e-01	0.000000e+00
8.537587e-01	0.000000e+00
9.039798e-01	0.000000e+00
9.542009e-01	0.000000e+00
1.004422e+00	0.000000e+00
1.054643e+00	0.000000e+00
1.104864e+00	0.000000e+00
1.155085e+00	0.000000e+00
1.205306e+00	0.000000e+00
1.255527e+00	0.000000e+00
1.305749e+00	0.000000e+00
1.355970e+00	0.000000e+00
1.406191e+00	0.000000e+00
1.456412e+00	0.000000e+00
1.506633e+00	0.000000e+00
1.556854e+00	0.000000e+00
1.607075e+00	0.000000e+00
1.657296e+00	0.000000e+00
1.707517e+00	0.000000e+00
1.757738e+00	0.000000e+00
1.807960e+00	0.000000e+00
1.858181e+00	0.000000e+00
1.908402e+00	0.000000e+00
1.958623e+00	0.000000e+00
2.008844e+00	0.000000e+00
2.059065e+00	0.000000e+00
2.109286e+00	0.000000e+00
2.159507e+00	0.000000e+00
2.209728e+00	0.000000e+00
2.259949e+00	0.000000e+00
2.310171e+00	0.000000e+00
2.360392e+00	0.000000e+00
2.410613e+00	0.000000e+00
2.460834e+00	0.000000e+00
2.511055e+00	0.000000e+00
2.561276e+00	0.000000e+00
2.611497e+00	6.089547e-03
2.661718e+00	1.434165e-07
2.711939e+00	0.000000e+00
2.762160e+00	0.000000e+00
2.812382e+00	0.000000e+00
2.862603e+00	9.870712e-41
2.912824e+00	1.352298e-32
2.963045e+00	2.262329e-41
3.013266e+00	0.000000e+00
3.063487e+00	1.892574e-42
3.113708e+00	1.021799e-32
3.163929e+00	6.854969e-04
3.214150e+00	3.893807e-02
3.264371e+00	0.000000e+00
3.314593e+00	0.000000e+00
3.364814e+00	1.058883e-01
3.415035e+00	2.049125e-04
3.465256e+00	0.000000e+00
3.515477e+00	0.000000e+00
3.565698e+00	0.000000e+00
3.615919e+00	0.000000e+00
3.666140e+00	0.000000e+00
3.716361e+00	0.000000e+00
3.766582e+00	0.000000e+00
3.816804e+00	0.000000e+00
3.867025e+00	2.560972e-41
3.917246e+00	4.283381e-32
3.967467e+00	2.134505e-35
4.017688e+00	2.838868e-42
4.067909e+00	1.389348e-31
4.118130e+00	8.303026e-38
4.168351e+00	0.000000e+00
4.218572e+00	8.949800e-73
4.268793e+00	5.880572e-65
4.319015e+00	4.718295e-74
4.369236e+00	0.000000e+00
4.419457e+00	2.033724e-38
4.469678e+00	7.070126e-32
4.519899e+00	3.001385e-42
4.570120e+00	0.000000e+00
4.620341e+00	0.000000e+00
4.670562e+00	0.000000e+00
4.720783e+00	0.000000e+00
4.771004e+00	0.000000e+00
4.821226e+00	0.000000e+00
4.871447e+00	1.854398e-03
4.921668e+00	1.281933e-03
4.971889e+00	3.761939e-06
5.022110e+00	7.198759e-02
5.072331e+00	5.918843e-11
5.122552e+00	0.000000e+00
5.172773e+00	0.000000e+00
5.222994e+00	4.970025e-03
5.273215e+00	3.435746e-03
5.323437e+00	0.000000e+00
5.373658e+00	0.000000e+00
5.423879e+00	0.000000e+00
5.474100e+00	0.000000e+00
5.524321e+00	0.000000e+00
5.574542e+00	0.000000e+00
5.624763e+00	0.000000e+00
5.674984e+00	0.000000e+00
5.725205e+00	0.000000e+00
5.775426e+00	8.014253e-10
5.825648e+00	4.773342e-01
5.875869e+00	3.471693e-09
5.926090e+00	6.861066e-40
5.976311e+00	1.041148e-32
6.026532e+00	6.035873e-35
6.076753e+00	5.363356e-35
6.126974e+00	7.007613e-34
6.177195e+00	0.000000e+00
6.227416e+00	1.642003e-01
6.277637e+00	1.854686e-06
6.327858e+00	8.873260e-40
6.378080e+00	8.756047e-04
6.428301e+00	4.299717e-08
6.478522e+00	0.000000e+00
6.528743e+00	7.957413e-36
6.578964e+00	1.967042e-33
6.629185e+00	1.124642e-34
6.679406e+00	0.000000e+00
6.729627e+00	1.442862e-01
6.779848e+00	6.310838e-03
6.830069e+00	1.489625e-43
6.880291e+00	1.676901e-33
6.930512e+00	2.305140e-40
6.980733e+00	3.030038e-04
7.030954e+00	3.958964e-03
7.081175e+00	4.770195e-35
7.131396e+00	1.829307e-09
7.181617e+00	5.764677e-02
7.231838e+00	5.021723e-05
7.282059e+00	2.585680e-02
7.332280e+00	5.385523e-38
7.382502e+00	1.244404e-32
7.432723e+00	1.056500e-42
7.482944e+00	0.000000e+00
7.533165e+00	0.000000e+00
7.583386e+00	0.000000e+00
7.633607e+00	0.000000e+00
7.683828e+00	8.711580e-03
7.734049e+00	9.839957e-08
7.784270e+00	7.036898e-38
7.834491e+00	1.288393e-01
7.884713e+00	3.001802e-03
7.934934e+00	8.664453e-02
7.985155e+00	6.951950e-11
8.035376e+00	0.000000e+00
8.085597e+00	0.000000e+00
8.135818e+00	1.380213e-02
8.186039e+00	1.161187e-04
8.236260e+00	0.000000e+00
8.286481e+00	0.000000e+00
8.336702e+00	0.000000e+00
8.386924e+00	3.110633e-32
8.437145e+00	6.045023e-33
8.487366e+00	1.793426e-10
8.537587e+00	2.227207e-01
8.587808e+00	3.377513e-09
8.638029e+00	2.015160e-32
8.688250e+00	6.144587e-35
8.738471e+00	2.729009e-33
8.788692e+00	5.277271e-12
8.838913e+00	2.849195e-02
8.889135e+00	2.073784e-09
8.939356e+00	3.514273e-03
8.989577e+00	3.680630e-05
9.039798e+00	3.223390e-33
9.090019e+00	1.300990e-35
9.140240e+00	6.774637e-34
9.190461e+00	2.520120e-33
9.240682e+00	1.845982e-39
9.290903e+00	5.334353e-04
9.341124e+00	3.342701e-03
9.391346e+00	7.456625e-33
9.441567e+00	8.891645e-03
9.491788e+00	3.511844e-04
9.542009e+00	2.421422e-04
9.592230e+00	2.186262e-02
9.642451e+00	3.353085e-02
9.692672e+00	1.662058e-04
9.742893e+00	1.701362e-08
9.793114e+00	3.357844e-03
9.843335e+00	8.724113e-09
9.893557e+00	1.145194e-32
9.943778e+00	8.329096e-41
9.993999e+00	2.321204e-05
1.004422e+01	2.832247e-02
1.009444e+01	4.239343e-09
1.014466e+01	1.279623e-02
1.019488e+01	3.100546e-07
1.024510e+01	3.123870e-38
1.029533e+01	2.368964e-32
1.034555e+01	0.000000e+00
1.039577e+01	0.000000e+00
1.044599e+01	1.461381e-33
1.049621e+01	8.946316e-03
1.054643e+01	4.846439e-08
1.059665e+01	4.905477e-35
1.064687e+01	4.896470e-05
1.069709e+01	3.384898e-05
1.074732e+01	6.739668e-33
1.079754e+01	1.422808e-05
1.084776e+01	1.685129e-03
1.089798e+01	1.505912e-08
1.094820e+01	5.775392e-03
1.099842e+01	4.424062e-37
1.104864e+01	1.294421e-33
1.109886e+01	7.277403e-03
1.114908e+01	2.086765e-04
1.119931e+01	0.000000e+00
1.124953e+01	0.000000e+00
1.129975e+01	1.026610e-06
1.134997e+01	1.117096e-02
1.140019e+01	1.001700e-07
1.145041e+01	3.942397e-02
1.150063e+01	1.079596e-02
1.155085e+01	0.000000e+00
1.160107e+01	3.641911e-05
1.165130e+01	3.132615e-03
1.170152e+01	3.447275e-04
1.175174e+01	1.366908e-06
1.180196e+01	4.333484e-32
1.185218e+01	7.181239e-36
1.190240e+01	0.000000e+00
1.195262e+01	1.427187e-04
1.200284e+01	1.222577e-03
1.205306e+01	1.028566e-05
1.210328e+01	3.433732e-10
1.215351e+01	2.257654e-02
1.220373e+01	1.783268e-03
1.225395e+01	8.084035e-04
1.230417e+01	9.048492e-34
1.235439e+01	1.909086e-33
1.240461e+01	2.754909e-33
1.245483e+01	1.036837e-07
1.250505e+01	9.146542e-03
1.255527e+01	1.434301e-06
1.260550e+01	1.143152e-02
1.265572e+01	4.943224e-09
1.270594e+01	6.573049e-03
1.275616e+01	4.833649e-05
1.280638e+01	2.556582e-02
1.285660e+01	2.464229e-02
1.290682e+01	7.877442e-03
1.295704e+01	0.000000e+00
1.300726e+01	0.000000e+00
1.305749e+01	5.798207e-07
1.310771e+01	1.298835e-03
1.315793e+01	4.488984e-04
1.320815e+01	6.616707e-06
1.325837e+01	3.406937e-03
1.330859e+01	4.879770e-33
1.335881e+01	6.850933e-34
1.340903e+01	8.469113e-04
1.345925e+01	3.417682e-06
1.350948e+01	1.675231e-04
1.355970e+01	8.814472e-02
1.360992e+01	1.197030e-10
1.366014e+01	2.394867e-07
1.371036e+01	5.360922e-04
1.376058e+01	3.048241e-02
1.381080e+01	8.060730e-03
1.386102e+01	1.456637e-03
1.391124e+01	9.601677e-11
1.396147e+01	0.000000e+00
1.401169e+01	1.602163e-05
1.406191e+01	1.343971e-04
1.411213e+01	5.684250e-05
1.416235e+01	7.032208e-03
1.421257e+01	1.790865e-07
1.426279e+01	1.579803e-02
1.431301e+01	3.176163e-38
1.436323e+01	8.237328e-05
1.441346e+01	2.167103e-03
1.446368e+01	4.857741e-08
1.451390e+01	1.953176e-10
1.456412e+01	2.951971e-03
1.461434e+01	7.589329e-10
1.466456e+01	2.636494e-03
1.471478e+01	4.843021e-04
1.476500e+01	2.783839e-02
1.481522e+01	1.662219e-04
1.486545e+01	1.184587e-32
1.491567e+01	2.600103e-39
1.496589e+01	1.504268e-34
1.500000e+01	2.658514e-33