File: cif_pxrd_calculator/example/txt/itwotheta/li0.5tio2_li2fev3o8_180011.txt
# 2theta [deg]	I_scaled [a.u.]	Wavelength = 0.20721 Å
0.000000e+00	0.000000e+00
5.022110e-02	0.000000e+00
1.004422e-01	0.000000e+00
1.506633e-01	0.000000e+00
2.008844e-01	0.000000e+00
2.511055e-01	0.000000e+00
3.013266e-01	0.000000e+00
3.515477e-01	0.000000e+00
4.017688e-01	0.000000e+00
4.519899e-01	0.000000e+00
5.022110e-01	0.000000e+00
5.524321e-01	0.000000e+00
6.026532e-01	0.000000e+00
6.528743e-01	0.000000e+00
7.030954e-01	0.000000e+00
7.533165e-01	0.000000e+00
8.035376e-01	0.000000e+00
8.537587e-01	0.000000e+00
9.039798e-01	0.000000e+00
9.542009e-01	1.216072e-37
1.004422e+00	1.837934e-30
1.054643e+00	3.392032e-40
1.104864e+00	0.000000e+00
1.155085e+00	0.000000e+00
1.205306e+00	0.000000e+00
1.255527e+00	0.000000e+00
1.305749e+00	0.000000e+00
1.355970e+00	0.000000e+00
1.406191e+00	0.000000e+00
1.456412e+00	0.000000e+00
1.506633e+00	0.000000e+00
1.556854e+00	0.000000e+00
1.607075e+00	0.000000e+00
1.657296e+00	0.000000e+00
1.707517e+00	0.000000e+00
1.757738e+00	0.000000e+00
1.807960e+00	0.000000e+00
1.858181e+00	8.552525e-35
1.908402e+00	1.791002e-02
1.958623e+00	2.847988e-03
2.008844e+00	1.655578e-01
2.059065e+00	3.370748e-12
2.109286e+00	0.000000e+00
2.159507e+00	0.000000e+00
2.209728e+00	0.000000e+00
2.259949e+00	0.000000e+00
2.310171e+00	2.910234e-02
2.360392e+00	7.561165e-08
2.410613e+00	4.160208e-33
2.460834e+00	1.521621e-34
2.511055e+00	0.000000e+00
2.561276e+00	0.000000e+00
2.611497e+00	0.000000e+00
2.661718e+00	0.000000e+00
2.711939e+00	0.000000e+00
2.762160e+00	0.000000e+00
2.812382e+00	0.000000e+00
2.862603e+00	0.000000e+00
2.912824e+00	0.000000e+00
2.963045e+00	3.995522e-37
3.013266e+00	7.685742e-32
3.063487e+00	2.566842e-34
3.113708e+00	1.377985e-32
3.163929e+00	2.898843e-03
3.214150e+00	6.190251e-07
3.264371e+00	8.951381e-01
3.314593e+00	5.901495e-08
3.364814e+00	0.000000e+00
3.415035e+00	0.000000e+00
3.465256e+00	0.000000e+00
3.515477e+00	0.000000e+00
3.565698e+00	0.000000e+00
3.615919e+00	1.142792e-05
3.666140e+00	4.179832e-07
3.716361e+00	1.428481e-11
3.766582e+00	3.698874e-02
3.816804e+00	5.338065e-08
3.867025e+00	4.681295e-01
3.917246e+00	7.460222e-05
3.967467e+00	8.316870e-03
4.017688e+00	5.592007e-02
4.067909e+00	1.569595e-34
4.118130e+00	2.231754e-32
4.168351e+00	0.000000e+00
4.218572e+00	0.000000e+00
4.268793e+00	8.998719e-12
4.319015e+00	2.116267e-01
4.369236e+00	2.566969e-03
4.419457e+00	1.390024e-34
4.469678e+00	1.816168e-33
4.519899e+00	0.000000e+00
4.570120e+00	0.000000e+00
4.620341e+00	9.245964e-03
4.670562e+00	7.778721e-05
4.720783e+00	0.000000e+00
4.771004e+00	1.474113e-10
4.821226e+00	4.210875e-02
4.871447e+00	2.804947e-03
4.921668e+00	2.433185e-04
4.971889e+00	3.179133e-03
5.022110e+00	2.414050e-32
5.072331e+00	2.442595e-04
5.122552e+00	4.494558e-04
5.172773e+00	2.653001e-03
5.222994e+00	0.000000e+00
5.273215e+00	2.253114e-03
5.323437e+00	2.091153e-06
5.373658e+00	0.000000e+00
5.423879e+00	0.000000e+00
5.474100e+00	3.358338e-11
5.524321e+00	4.600959e-03
5.574542e+00	7.697180e-12
5.624763e+00	8.903393e-36
5.674984e+00	4.822580e-06
5.725205e+00	3.842004e-01
5.775426e+00	2.610448e-02
5.825648e+00	4.579191e-04
5.875869e+00	4.435574e-06
5.926090e+00	1.954773e-06
5.976311e+00	4.920154e-05
6.026532e+00	3.949032e-04
6.076753e+00	6.378205e-02
6.126974e+00	1.159941e-05
6.177195e+00	7.271707e-05
6.227416e+00	4.675587e-01
6.277637e+00	8.629113e-11
6.327858e+00	2.237969e-06
6.378080e+00	5.046051e-02
6.428301e+00	5.591645e-05
6.478522e+00	3.510032e-04
6.528743e+00	3.704543e-02
6.578964e+00	5.094859e-08
6.629185e+00	1.166219e-03
6.679406e+00	1.802775e-02
6.729627e+00	6.306580e-09
6.779848e+00	8.389258e-32
6.830069e+00	1.186598e-03
6.880291e+00	1.961626e-04
6.930512e+00	3.493117e-02
6.980733e+00	2.395779e-03
7.030954e+00	7.958147e-09
7.081175e+00	4.330367e-07
7.131396e+00	2.021158e-03
7.181617e+00	1.891431e-33
7.231838e+00	7.018760e-10
7.282059e+00	1.060797e-02
7.332280e+00	1.814045e-01
7.382502e+00	1.270826e-01
7.432723e+00	7.154443e-05
7.482944e+00	8.933752e-33
7.533165e+00	4.495221e-02
7.583386e+00	4.866471e-03
7.633607e+00	2.720386e-03
7.683828e+00	3.815088e-03
7.734049e+00	3.198631e-04
7.784270e+00	4.343876e-03
7.834491e+00	4.852178e-03
7.884713e+00	1.289364e-04
7.934934e+00	9.460568e-02
7.985155e+00	4.067528e-02
8.035376e+00	9.662337e-03
8.085597e+00	5.546312e-02
8.135818e+00	1.230501e-06
8.186039e+00	3.957389e-05
8.236260e+00	2.168626e-02
8.286481e+00	2.359065e-08
8.336702e+00	5.120743e-03
8.386924e+00	5.692087e-06
8.437145e+00	1.551092e-02
8.487366e+00	1.065109e-02
8.537587e+00	3.694396e-04
8.587808e+00	7.414238e-07
8.638029e+00	1.797702e-04
8.688250e+00	1.675759e-02
8.738471e+00	3.804553e-07
8.788692e+00	5.742067e-04
8.838913e+00	1.225845e-07
8.889135e+00	9.484816e-04
8.939356e+00	2.024865e-07
8.989577e+00	4.155068e-32
9.039798e+00	2.756479e-32
9.090019e+00	6.178318e-11
9.140240e+00	8.464487e-03
9.190461e+00	2.666042e-04
9.240682e+00	4.917765e-02
9.290903e+00	1.183730e-02
9.341124e+00	1.410624e-02
9.391346e+00	3.452002e-02
9.441567e+00	2.275847e-09
9.491788e+00	7.774149e-03
9.542009e+00	2.080703e-03
9.592230e+00	3.233896e-03
9.642451e+00	1.116023e-02
9.692672e+00	2.708449e-03
9.742893e+00	1.064835e-02
9.793114e+00	3.955012e-02
9.843335e+00	9.189617e-04
9.893557e+00	1.426606e-03
9.943778e+00	6.732396e-03
9.993999e+00	3.153804e-06
1.004422e+01	6.774626e-03
1.009444e+01	7.901223e-08
1.014466e+01	3.179102e-02
1.019488e+01	3.136508e-02
1.024510e+01	1.788491e-06
1.029533e+01	4.974989e-03
1.034555e+01	8.179910e-05
1.039577e+01	1.024362e-03
1.044599e+01	4.514590e-04
1.049621e+01	1.472431e-02
1.054643e+01	2.738824e-04
1.059665e+01	1.389622e-05
1.064687e+01	7.889853e-04
1.069709e+01	1.032610e-13
1.074732e+01	5.578791e-04
1.079754e+01	1.432646e-03
1.084776e+01	2.996252e-04
1.089798e+01	3.234945e-03
1.094820e+01	1.578184e-03
1.099842e+01	2.600841e-05
1.104864e+01	1.357233e-02
1.109886e+01	2.001489e-08
1.114908e+01	7.880949e-03
1.119931e+01	2.355375e-02
1.124953e+01	2.947583e-04
1.129975e+01	3.294533e-04
1.134997e+01	1.773460e-04
1.140019e+01	3.700383e-03
1.145041e+01	2.372029e-02
1.150063e+01	7.870882e-02
1.155085e+01	4.397781e-03
1.160107e+01	2.286237e-02
1.165130e+01	2.374505e-04
1.170152e+01	7.150068e-03
1.175174e+01	9.082619e-04
1.180196e+01	2.847342e-02
1.185218e+01	5.986264e-03
1.190240e+01	1.795866e-03
1.195262e+01	1.402033e-05
1.200284e+01	9.137487e-03
1.205306e+01	3.656244e-03
1.210328e+01	1.980452e-08
1.215351e+01	1.547015e-04
1.220373e+01	1.250024e-02
1.225395e+01	1.054935e-11
1.230417e+01	1.235130e-04
1.235439e+01	2.053399e-02
1.240461e+01	3.913378e-07
1.245483e+01	1.455212e-02
1.250505e+01	1.182312e-05
1.255527e+01	4.718771e-05
1.260550e+01	3.039712e-03
1.265572e+01	1.447869e-02
1.270594e+01	2.277200e-03
1.275616e+01	6.532230e-04
1.280638e+01	3.476932e-02
1.285660e+01	3.477103e-03
1.290682e+01	1.133533e-02
1.295704e+01	3.089624e-03
1.300726e+01	2.478232e-04
1.305749e+01	3.055752e-02
1.310771e+01	4.286115e-03
1.315793e+01	2.396394e-03
1.320815e+01	1.718046e-03
1.325837e+01	1.244955e-04
1.330859e+01	2.133915e-02
1.335881e+01	1.773477e-02
1.340903e+01	1.921332e-02
1.345925e+01	3.447162e-03
1.350948e+01	1.431572e-07
1.355970e+01	9.506202e-04
1.360992e+01	8.073092e-05
1.366014e+01	2.949487e-04
1.371036e+01	1.085832e-02
1.376058e+01	4.165608e-02
1.381080e+01	6.582224e-04
1.386102e+01	2.480735e-03
1.391124e+01	4.938778e-05
1.396147e+01	5.071968e-04
1.401169e+01	1.830027e-02
1.406191e+01	3.261558e-03
1.411213e+01	1.401193e-02
1.416235e+01	1.921120e-03
1.421257e+01	6.335596e-04
1.426279e+01	1.480282e-02
1.431301e+01	9.580567e-03
1.436323e+01	1.272647e-03
1.441346e+01	2.052393e-03
1.446368e+01	2.482099e-02
1.451390e+01	3.492930e-04
1.456412e+01	8.397773e-04
1.461434e+01	1.514010e-04
1.466456e+01	1.425241e-04
1.471478e+01	1.036502e-03
1.476500e+01	1.753885e-02
1.481522e+01	5.674377e-03
1.486545e+01	8.613401e-03
1.491567e+01	8.641270e-03
1.496589e+01	5.045511e-03
1.500000e+01	1.063687e-06