File: cif_pxrd_calculator/example/txt/itwotheta/li0.5tio2_li0.5tio2_8262.txt
# 2theta [deg]	I_scaled [a.u.]	Wavelength = 0.20721 Å
0.000000e+00	0.000000e+00
5.022110e-02	0.000000e+00
1.004422e-01	0.000000e+00
1.506633e-01	0.000000e+00
2.008844e-01	0.000000e+00
2.511055e-01	0.000000e+00
3.013266e-01	0.000000e+00
3.515477e-01	0.000000e+00
4.017688e-01	0.000000e+00
4.519899e-01	0.000000e+00
5.022110e-01	0.000000e+00
5.524321e-01	0.000000e+00
6.026532e-01	0.000000e+00
6.528743e-01	0.000000e+00
7.030954e-01	0.000000e+00
7.533165e-01	0.000000e+00
8.035376e-01	0.000000e+00
8.537587e-01	0.000000e+00
9.039798e-01	0.000000e+00
9.542009e-01	0.000000e+00
1.004422e+00	0.000000e+00
1.054643e+00	0.000000e+00
1.104864e+00	0.000000e+00
1.155085e+00	0.000000e+00
1.205306e+00	9.485263e-36
1.255527e+00	1.924688e-31
1.305749e+00	0.000000e+00
1.355970e+00	0.000000e+00
1.406191e+00	0.000000e+00
1.456412e+00	0.000000e+00
1.506633e+00	0.000000e+00
1.556854e+00	0.000000e+00
1.607075e+00	0.000000e+00
1.657296e+00	0.000000e+00
1.707517e+00	0.000000e+00
1.757738e+00	0.000000e+00
1.807960e+00	0.000000e+00
1.858181e+00	0.000000e+00
1.908402e+00	0.000000e+00
1.958623e+00	0.000000e+00
2.008844e+00	0.000000e+00
2.059065e+00	0.000000e+00
2.109286e+00	0.000000e+00
2.159507e+00	0.000000e+00
2.209728e+00	0.000000e+00
2.259949e+00	0.000000e+00
2.310171e+00	6.254087e-44
2.360392e+00	3.060764e-33
2.410613e+00	1.829174e-39
2.460834e+00	7.588216e-05
2.511055e+00	4.755053e-04
2.561276e+00	0.000000e+00
2.611497e+00	0.000000e+00
2.661718e+00	3.100337e-01
2.711939e+00	1.522442e-05
2.762160e+00	0.000000e+00
2.812382e+00	0.000000e+00
2.862603e+00	0.000000e+00
2.912824e+00	0.000000e+00
2.963045e+00	0.000000e+00
3.013266e+00	0.000000e+00
3.063487e+00	0.000000e+00
3.113708e+00	0.000000e+00
3.163929e+00	0.000000e+00
3.214150e+00	0.000000e+00
3.264371e+00	0.000000e+00
3.314593e+00	0.000000e+00
3.364814e+00	0.000000e+00
3.415035e+00	3.823276e-03
3.465256e+00	3.216560e-05
3.515477e+00	0.000000e+00
3.565698e+00	0.000000e+00
3.615919e+00	0.000000e+00
3.666140e+00	0.000000e+00
3.716361e+00	1.243178e-32
3.766582e+00	1.153815e-35
3.816804e+00	0.000000e+00
3.867025e+00	0.000000e+00
3.917246e+00	0.000000e+00
3.967467e+00	0.000000e+00
4.017688e+00	9.223361e-34
4.067909e+00	1.969049e-37
4.118130e+00	0.000000e+00
4.168351e+00	1.683757e-40
4.218572e+00	1.002856e-31
4.268793e+00	7.293862e-40
4.319015e+00	0.000000e+00
4.369236e+00	6.530241e-10
4.419457e+00	3.889455e-01
4.469678e+00	2.828834e-09
4.519899e+00	0.000000e+00
4.570120e+00	0.000000e+00
4.620341e+00	1.195660e-12
4.670562e+00	1.345978e-02
4.720783e+00	2.942497e-02
4.771004e+00	4.480981e-05
4.821226e+00	2.575663e-02
4.871447e+00	5.523715e-05
4.921668e+00	1.788208e-06
4.971889e+00	1.581694e-02
5.022110e+00	4.533461e-09
5.072331e+00	0.000000e+00
5.122552e+00	0.000000e+00
5.172773e+00	0.000000e+00
5.222994e+00	0.000000e+00
5.273215e+00	4.010684e-03
5.323437e+00	1.417921e-03
5.373658e+00	1.271187e-04
5.423879e+00	0.000000e+00
5.474100e+00	6.654392e-07
5.524321e+00	1.350266e-02
5.574542e+00	0.000000e+00
5.624763e+00	0.000000e+00
5.674984e+00	0.000000e+00
5.725205e+00	0.000000e+00
5.775426e+00	0.000000e+00
5.825648e+00	0.000000e+00
5.875869e+00	0.000000e+00
5.926090e+00	0.000000e+00
5.976311e+00	9.264386e-02
6.026532e+00	6.880981e-02
6.076753e+00	4.536507e-09
6.126974e+00	0.000000e+00
6.177195e+00	1.099821e-38
6.227416e+00	4.505009e-32
6.277637e+00	3.281660e-42
6.327858e+00	2.693114e-04
6.378080e+00	3.979290e-05
6.428301e+00	1.077259e-03
6.478522e+00	0.000000e+00
6.528743e+00	0.000000e+00
6.578964e+00	0.000000e+00
6.629185e+00	4.758891e-06
6.679406e+00	1.311336e-02
6.729627e+00	4.748873e-04
6.779848e+00	1.182095e-11
6.830069e+00	7.040951e-03
6.880291e+00	1.219262e-01
6.930512e+00	0.000000e+00
6.980733e+00	0.000000e+00
7.030954e+00	0.000000e+00
7.081175e+00	4.235454e-34
7.131396e+00	1.404251e-34
7.181617e+00	2.017817e-06
7.231838e+00	1.178074e-03
7.282059e+00	6.491866e-04
7.332280e+00	0.000000e+00
7.382502e+00	2.266301e-35
7.432723e+00	2.358562e-07
7.482944e+00	2.295307e-03
7.533165e+00	2.278773e-02
7.583386e+00	4.205630e-12
7.633607e+00	0.000000e+00
7.683828e+00	0.000000e+00
7.734049e+00	8.857697e-11
7.784270e+00	2.293593e-01
7.834491e+00	5.897564e-03
7.884713e+00	1.674958e-11
7.934934e+00	6.963338e-07
7.985155e+00	1.558790e-03
8.035376e+00	3.539044e-02
8.085597e+00	1.347224e-02
8.135818e+00	2.221079e-06
8.186039e+00	1.036668e-02
8.236260e+00	1.328654e-04
8.286481e+00	7.547114e-03
8.336702e+00	0.000000e+00
8.386924e+00	1.184876e-34
8.437145e+00	1.130728e-03
8.487366e+00	1.484580e-01
8.537587e+00	2.839609e-03
8.587808e+00	8.129735e-10
8.638029e+00	2.801860e-08
8.688250e+00	5.153599e-03
8.738471e+00	1.472644e-06
8.788692e+00	8.086038e-04
8.838913e+00	8.734209e-03
8.889135e+00	2.250890e-08
8.939356e+00	2.333616e-10
8.989577e+00	7.353921e-03
9.039798e+00	3.182611e-02
9.090019e+00	6.479781e-13
9.140240e+00	0.000000e+00
9.190461e+00	2.127237e-02
9.240682e+00	2.178037e-06
9.290903e+00	0.000000e+00
9.341124e+00	1.088912e-03
9.391346e+00	4.393706e-06
9.441567e+00	1.142081e-02
9.491788e+00	9.800435e-03
9.542009e+00	3.236697e-03
9.592230e+00	1.104893e-03
9.642451e+00	1.581980e-09
9.692672e+00	2.640540e-03
9.742893e+00	1.485390e-03
9.793114e+00	1.376998e-03
9.843335e+00	3.249160e-10
9.893557e+00	2.381010e-03
9.943778e+00	5.690385e-04
9.993999e+00	1.666096e-05
1.004422e+01	1.683043e-06
1.009444e+01	3.767497e-03
1.014466e+01	3.344176e-11
1.019488e+01	1.162587e-04
1.024510e+01	1.701315e-02
1.029533e+01	1.547717e-03
1.034555e+01	2.641464e-05
1.039577e+01	3.361654e-03
1.044599e+01	4.161424e-05
1.049621e+01	6.617119e-06
1.054643e+01	2.209762e-12
1.059665e+01	6.991564e-02
1.064687e+01	2.474117e-07
1.069709e+01	3.516824e-03
1.074732e+01	1.022808e-02
1.079754e+01	6.594262e-07
1.084776e+01	3.380288e-04
1.089798e+01	0.000000e+00
1.094820e+01	1.153575e-03
1.099842e+01	4.812515e-03
1.104864e+01	1.693370e-02
1.109886e+01	4.974314e-04
1.114908e+01	0.000000e+00
1.119931e+01	1.299345e-10
1.124953e+01	3.419864e-02
1.129975e+01	4.884183e-09
1.134997e+01	1.200417e-02
1.140019e+01	1.811050e-02
1.145041e+01	6.907256e-03
1.150063e+01	5.102947e-09
1.155085e+01	0.000000e+00
1.160107e+01	0.000000e+00
1.165130e+01	0.000000e+00
1.170152e+01	3.656257e-12
1.175174e+01	1.974010e-02
1.180196e+01	1.301432e-09
1.185218e+01	3.537469e-03
1.190240e+01	7.586510e-04
1.195262e+01	6.213266e-05
1.200284e+01	8.521080e-04
1.205306e+01	2.386043e-03
1.210328e+01	6.497982e-03
1.215351e+01	3.074078e-02
1.220373e+01	4.875340e-05
1.225395e+01	3.962019e-04
1.230417e+01	5.838602e-10
1.235439e+01	2.050177e-03
1.240461e+01	1.092915e-02
1.245483e+01	1.368472e-02
1.250505e+01	2.558370e-03
1.255527e+01	1.990931e-05
1.260550e+01	5.733780e-03
1.265572e+01	2.680067e-08
1.270594e+01	2.277344e-04
1.275616e+01	1.060463e-03
1.280638e+01	1.514527e-03
1.285660e+01	2.100279e-03
1.290682e+01	1.311968e-02
1.295704e+01	1.758888e-12
1.300726e+01	2.678282e-05
1.305749e+01	1.198250e-02
1.310771e+01	1.471686e-02
1.315793e+01	3.846115e-10
1.320815e+01	7.496880e-09
1.325837e+01	2.606337e-02
1.330859e+01	3.428313e-04
1.335881e+01	4.784827e-04
1.340903e+01	2.116894e-03
1.345925e+01	8.068022e-05
1.350948e+01	2.815560e-02
1.355970e+01	1.637222e-03
1.360992e+01	4.613497e-34
1.366014e+01	3.238490e-05
1.371036e+01	2.029356e-04
1.376058e+01	1.647610e-03
1.381080e+01	1.351655e-04
1.386102e+01	2.780667e-02
1.391124e+01	8.347759e-03
1.396147e+01	1.383630e-03
1.401169e+01	5.737142e-03
1.406191e+01	6.287745e-03
1.411213e+01	2.061357e-02
1.416235e+01	6.517896e-10
1.421257e+01	2.478576e-05
1.426279e+01	4.579832e-03
1.431301e+01	2.021003e-04
1.436323e+01	1.365246e-03
1.441346e+01	8.943151e-03
1.446368e+01	5.006974e-04
1.451390e+01	3.732552e-04
1.456412e+01	9.613705e-03
1.461434e+01	3.080063e-03
1.466456e+01	2.731392e-05
1.471478e+01	3.950169e-03
1.476500e+01	8.289093e-07
1.481522e+01	2.768779e-05
1.486545e+01	1.049924e-02
1.491567e+01	7.047306e-03
1.496589e+01	2.594756e-03
1.500000e+01	3.941819e-06