File: cif_pxrd_calculator/txt/iq/li0.5tio2_li2fev3o8_180011.txt
# Q [Å^-1]	I_scaled [a.u.]
0.000000e+00	0.000000e+00
2.657864e-02	0.000000e+00
5.315727e-02	0.000000e+00
7.973589e-02	0.000000e+00
1.063145e-01	0.000000e+00
1.328931e-01	0.000000e+00
1.594717e-01	0.000000e+00
1.860502e-01	0.000000e+00
2.126287e-01	0.000000e+00
2.392071e-01	0.000000e+00
2.657855e-01	0.000000e+00
2.923639e-01	0.000000e+00
3.189422e-01	0.000000e+00
3.455204e-01	0.000000e+00
3.720986e-01	0.000000e+00
3.986767e-01	0.000000e+00
4.252547e-01	0.000000e+00
4.518327e-01	0.000000e+00
4.784105e-01	0.000000e+00
5.049883e-01	1.475697e-38
5.315660e-01	2.230324e-31
5.581435e-01	4.116215e-41
5.847210e-01	0.000000e+00
6.112983e-01	0.000000e+00
6.378756e-01	0.000000e+00
6.644527e-01	0.000000e+00
6.910297e-01	0.000000e+00
7.176065e-01	0.000000e+00
7.441832e-01	0.000000e+00
7.707598e-01	0.000000e+00
7.973362e-01	0.000000e+00
8.239125e-01	0.000000e+00
8.504886e-01	0.000000e+00
8.770645e-01	0.000000e+00
9.036403e-01	0.000000e+00
9.302159e-01	0.000000e+00
9.567913e-01	0.000000e+00
9.833665e-01	6.415936e-35
1.009942e+00	1.787084e-02
1.036516e+00	2.841759e-03
1.063091e+00	1.652095e-01
1.089666e+00	3.363657e-12
1.116240e+00	0.000000e+00
1.142814e+00	0.000000e+00
1.169388e+00	0.000000e+00
1.195961e+00	0.000000e+00
1.222535e+00	2.907023e-02
1.249108e+00	7.552822e-08
1.275681e+00	4.808469e-33
1.302253e+00	1.758727e-34
1.328826e+00	0.000000e+00
1.355398e+00	0.000000e+00
1.381970e+00	0.000000e+00
1.408541e+00	0.000000e+00
1.435113e+00	0.000000e+00
1.461684e+00	0.000000e+00
1.488254e+00	0.000000e+00
1.514825e+00	0.000000e+00
1.541395e+00	0.000000e+00
1.567965e+00	1.266172e-36
1.594535e+00	2.329979e-31
1.621104e+00	7.972022e-36
1.647673e+00	1.379296e-32
1.674242e+00	2.890620e-03
1.700810e+00	6.172697e-07
1.727378e+00	8.951381e-01
1.753946e+00	5.901495e-08
1.780513e+00	0.000000e+00
1.807080e+00	0.000000e+00
1.833647e+00	0.000000e+00
1.860213e+00	0.000000e+00
1.886779e+00	0.000000e+00
1.913344e+00	1.111803e-05
1.939910e+00	4.066485e-07
1.966475e+00	1.425501e-11
1.993039e+00	3.691157e-02
2.019603e+00	5.345264e-08
2.046167e+00	4.688218e-01
2.072730e+00	7.450060e-05
2.099293e+00	8.303953e-03
2.125856e+00	5.607851e-02
2.152418e+00	4.218262e-34
2.178979e+00	8.699158e-32
2.205541e+00	0.000000e+00
2.232101e+00	0.000000e+00
2.258662e+00	8.988799e-12
2.285222e+00	2.113943e-01
2.311781e+00	2.569900e-03
2.338340e+00	1.202480e-34
2.364899e+00	1.571127e-33
2.391457e+00	0.000000e+00
2.418015e+00	0.000000e+00
2.444572e+00	9.217961e-03
2.471129e+00	7.755161e-05
2.497685e+00	0.000000e+00
2.524241e+00	1.453594e-10
2.550797e+00	4.152262e-02
2.577352e+00	2.840128e-03
2.603906e+00	2.419559e-04
2.630460e+00	3.161330e-03
2.657013e+00	1.310501e-32
2.683566e+00	2.343290e-04
2.710118e+00	4.324054e-04
2.736670e+00	2.578444e-03
2.763221e+00	0.000000e+00
2.789772e+00	2.217840e-03
2.816322e+00	2.058415e-06
2.842872e+00	0.000000e+00
2.869421e+00	0.000000e+00
2.895970e+00	3.336607e-11
2.922518e+00	4.571187e-03
2.949065e+00	7.647373e-12
2.975612e+00	4.597588e-35
3.002159e+00	4.915283e-06
3.028704e+00	3.909532e-01
3.055250e+00	2.652912e-02
3.081794e+00	4.653681e-04
3.108338e+00	4.849108e-06
3.134882e+00	1.988153e-06
3.161424e+00	4.970821e-05
3.187967e+00	4.049370e-04
3.214508e+00	6.464934e-02
3.241049e+00	1.170914e-05
3.267590e+00	7.340526e-05
3.294129e+00	4.767436e-01
3.320668e+00	8.798627e-11
3.347207e+00	2.232428e-06
3.373745e+00	5.089380e-02
3.400282e+00	5.569360e-05
3.426818e+00	3.496168e-04
3.453354e+00	3.762005e-02
3.479889e+00	5.168848e-08
3.506424e+00	1.204334e-03
3.532958e+00	1.852287e-02
3.559491e+00	6.503543e-09
3.586023e+00	3.015028e-31
3.612555e+00	1.206286e-03
3.639086e+00	1.994059e-04
3.665617e+00	3.545730e-02
3.692146e+00	2.398641e-03
3.718675e+00	7.889782e-09
3.745203e+00	4.546842e-07
3.771731e+00	2.122195e-03
3.798258e+00	4.410320e-33
3.824784e+00	7.009367e-10
3.851309e+00	1.059378e-02
3.877834e+00	1.844189e-01
3.904358e+00	1.298255e-01
3.930881e+00	7.306308e-05
3.957403e+00	8.077979e-33
3.983925e+00	4.606693e-02
4.010446e+00	4.927110e-03
4.036966e+00	2.754025e-03
4.063485e+00	3.777774e-03
4.090004e+00	3.412120e-04
4.116521e+00	4.337039e-03
4.143038e+00	5.048098e-03
4.169554e+00	1.348325e-04
4.196070e+00	9.573191e-02
4.222584e+00	4.168189e-02
4.249098e+00	9.827403e-03
4.275611e+00	5.800317e-02
4.302123e+00	1.169389e-06
4.328634e+00	4.114501e-05
4.355145e+00	2.182792e-02
4.381654e+00	2.333475e-08
4.408163e+00	5.012251e-03
4.434671e+00	5.798189e-06
4.461178e+00	1.586042e-02
4.487684e+00	1.110391e-02
4.514190e+00	3.850168e-04
4.540694e+00	7.589965e-07
4.567198e+00	1.897665e-04
4.593700e+00	1.730681e-02
4.620202e+00	3.930971e-07
4.646703e+00	5.641185e-04
4.673203e+00	1.204308e-07
4.699702e+00	9.460717e-04
4.726201e+00	2.019721e-07
4.752698e+00	1.409574e-31
4.779194e+00	1.578692e-33
4.805690e+00	6.580188e-11
4.832185e+00	9.015040e-03
4.858678e+00	2.594788e-04
4.885171e+00	5.065717e-02
4.911663e+00	1.229338e-02
4.938154e+00	1.460399e-02
4.964644e+00	3.552582e-02
4.991132e+00	2.342158e-09
5.017620e+00	8.115662e-03
5.044108e+00	2.449764e-03
5.070594e+00	3.345536e-03
5.097079e+00	1.133075e-02
5.123563e+00	2.809804e-03
5.150046e+00	1.044083e-02
5.176528e+00	4.130845e-02
5.203009e+00	9.421631e-04
5.229489e+00	1.424861e-03
5.255968e+00	6.741357e-03
5.282447e+00	3.043851e-06
5.308924e+00	6.520888e-03
5.335400e+00	8.242473e-08
5.361875e+00	3.307393e-02
5.388349e+00	3.284809e-02
5.414822e+00	1.752260e-06
5.441294e+00	5.276090e-03
5.467765e+00	8.725471e-05
5.494235e+00	9.771582e-04
5.520703e+00	5.050444e-04
5.547171e+00	1.492414e-02
5.573638e+00	2.971559e-04
5.600104e+00	1.547362e-05
5.626568e+00	8.221192e-04
5.653032e+00	1.076720e-13
5.679494e+00	5.817307e-04
5.705955e+00	1.403577e-03
5.732415e+00	3.147303e-04
5.758874e+00	3.399950e-03
5.785332e+00	1.691589e-03
5.811789e+00	2.799219e-05
5.838245e+00	1.413744e-02
5.864700e+00	2.116041e-08
5.891153e+00	8.086304e-03
5.917606e+00	2.465160e-02
5.944057e+00	2.923330e-04
5.970507e+00	3.094023e-04
5.996956e+00	1.973844e-04
6.023404e+00	3.764790e-03
6.049850e+00	2.486671e-02
6.076296e+00	8.273272e-02
6.102740e+00	4.451835e-03
6.129183e+00	2.475640e-02
6.155625e+00	2.839645e-04
6.182066e+00	7.246050e-03
6.208506e+00	9.060727e-04
6.234944e+00	2.935069e-02
6.261381e+00	6.198752e-03
6.287817e+00	1.879558e-03
6.314252e+00	1.400695e-05
6.340685e+00	8.634709e-03
6.367118e+00	3.552455e-03
6.393549e+00	1.924438e-08
6.419979e+00	1.757532e-04
6.446408e+00	1.301299e-02
6.472835e+00	1.101803e-09
6.499261e+00	1.298579e-04
6.525686e+00	2.176788e-02
6.552110e+00	4.310770e-07
6.578532e+00	1.600501e-02
6.604953e+00	1.526567e-05
6.631373e+00	5.485536e-05
6.657792e+00	3.269207e-03
6.684209e+00	1.591457e-02
6.710625e+00	2.447981e-03
6.737040e+00	7.367268e-04
6.763454e+00	3.792096e-02
6.789866e+00	3.949892e-03
6.816277e+00	1.244784e-02
6.842686e+00	3.373401e-03
6.869095e+00	3.656349e-04
6.895501e+00	3.244751e-02
6.921907e+00	4.587725e-03
6.948311e+00	2.605244e-03
6.974714e+00	1.855151e-03
7.001116e+00	9.602937e-05
7.027516e+00	2.213960e-02
7.053915e+00	1.889304e-02
7.080313e+00	2.023394e-02
7.106709e+00	3.501348e-03
7.133104e+00	1.555543e-07
7.159497e+00	9.951098e-04
7.185889e+00	8.511354e-05
7.212280e+00	2.720570e-04
7.238669e+00	1.136962e-02
7.265057e+00	4.678314e-02
7.291444e+00	5.830018e-04
7.317829e+00	2.947475e-03
7.344213e+00	5.417488e-05
7.370595e+00	5.688008e-04
7.396976e+00	2.017624e-02
7.423355e+00	3.387235e-03
7.449733e+00	1.613895e-02
7.476110e+00	2.158585e-03
7.502485e+00	8.547364e-04
7.528859e+00	1.539350e-02
7.555231e+00	1.054120e-02
7.581602e+00	1.566433e-03
7.607971e+00	2.186660e-03
7.634339e+00	2.721976e-02
7.660706e+00	3.962783e-04
7.687071e+00	1.034360e-03
7.713434e+00	1.570089e-04
7.739796e+00	1.524270e-04
7.766157e+00	1.118561e-03
7.792516e+00	1.869351e-02
7.818874e+00	6.245106e-03
7.845230e+00	1.010548e-02
7.871584e+00	9.348906e-03
7.897937e+00	5.855953e-03
7.915837e+00	1.261819e-06