File: cif_pxrd_calculator/txt/iq/li0.5tio2_Imma_36449.txt
# Q [Å^-1]	I_scaled [a.u.]
0.000000e+00	0.000000e+00
2.657864e-02	0.000000e+00
5.315727e-02	0.000000e+00
7.973589e-02	0.000000e+00
1.063145e-01	0.000000e+00
1.328931e-01	0.000000e+00
1.594717e-01	0.000000e+00
1.860502e-01	0.000000e+00
2.126287e-01	0.000000e+00
2.392071e-01	0.000000e+00
2.657855e-01	0.000000e+00
2.923639e-01	0.000000e+00
3.189422e-01	0.000000e+00
3.455204e-01	0.000000e+00
3.720986e-01	0.000000e+00
3.986767e-01	0.000000e+00
4.252547e-01	0.000000e+00
4.518327e-01	0.000000e+00
4.784105e-01	0.000000e+00
5.049883e-01	0.000000e+00
5.315660e-01	0.000000e+00
5.581435e-01	0.000000e+00
5.847210e-01	0.000000e+00
6.112983e-01	0.000000e+00
6.378756e-01	0.000000e+00
6.644527e-01	1.796685e-42
6.910297e-01	4.217160e-32
7.176065e-01	1.208725e-38
7.441832e-01	0.000000e+00
7.707598e-01	0.000000e+00
7.973362e-01	0.000000e+00
8.239125e-01	0.000000e+00
8.504886e-01	0.000000e+00
8.770645e-01	0.000000e+00
9.036403e-01	0.000000e+00
9.302159e-01	0.000000e+00
9.567913e-01	0.000000e+00
9.833665e-01	0.000000e+00
1.009942e+00	0.000000e+00
1.036516e+00	0.000000e+00
1.063091e+00	0.000000e+00
1.089666e+00	0.000000e+00
1.116240e+00	0.000000e+00
1.142814e+00	0.000000e+00
1.169388e+00	0.000000e+00
1.195961e+00	0.000000e+00
1.222535e+00	0.000000e+00
1.249108e+00	0.000000e+00
1.275681e+00	0.000000e+00
1.302253e+00	0.000000e+00
1.328826e+00	0.000000e+00
1.355398e+00	0.000000e+00
1.381970e+00	6.030460e-03
1.408541e+00	1.420249e-07
1.435113e+00	0.000000e+00
1.461684e+00	0.000000e+00
1.488254e+00	0.000000e+00
1.514825e+00	9.793129e-41
1.541395e+00	1.341669e-32
1.567965e+00	2.244547e-41
1.594535e+00	0.000000e+00
1.621104e+00	1.882576e-42
1.647673e+00	1.016401e-32
1.674242e+00	6.838271e-04
1.700810e+00	3.884322e-02
1.727378e+00	0.000000e+00
1.753946e+00	0.000000e+00
1.780513e+00	1.058883e-01
1.807080e+00	2.049125e-04
1.833647e+00	0.000000e+00
1.860213e+00	0.000000e+00
1.886779e+00	0.000000e+00
1.913344e+00	0.000000e+00
1.939910e+00	0.000000e+00
1.966475e+00	0.000000e+00
1.993039e+00	0.000000e+00
2.019603e+00	0.000000e+00
2.046167e+00	4.846103e-41
2.072730e+00	1.074994e-31
2.099293e+00	9.156751e-35
2.125856e+00	1.658558e-42
2.152418e+00	8.117019e-32
2.178979e+00	4.850894e-38
2.205541e+00	0.000000e+00
2.232101e+00	1.759850e-72
2.258662e+00	1.156330e-64
2.285222e+00	9.277853e-74
2.311781e+00	0.000000e+00
2.338340e+00	1.191068e-38
2.364899e+00	4.140682e-32
2.391457e+00	1.757788e-42
2.418015e+00	0.000000e+00
2.444572e+00	0.000000e+00
2.471129e+00	0.000000e+00
2.497685e+00	0.000000e+00
2.524241e+00	0.000000e+00
2.550797e+00	0.000000e+00
2.577352e+00	1.929098e-03
2.603906e+00	1.333573e-03
2.630460e+00	3.984472e-06
2.657013e+00	7.596743e-02
2.683566e+00	6.222371e-11
2.710118e+00	0.000000e+00
2.736670e+00	0.000000e+00
2.763221e+00	5.160441e-03
2.789772e+00	3.567380e-03
2.816322e+00	0.000000e+00
2.842872e+00	0.000000e+00
2.869421e+00	0.000000e+00
2.895970e+00	0.000000e+00
2.922518e+00	0.000000e+00
2.949065e+00	0.000000e+00
2.975612e+00	0.000000e+00
3.002159e+00	0.000000e+00
3.028704e+00	0.000000e+00
3.055250e+00	8.453070e-10
3.081794e+00	5.034704e-01
3.108338e+00	3.661784e-09
3.134882e+00	5.925236e-40
3.161424e+00	9.541850e-33
3.187967e+00	8.455558e-34
3.214508e+00	2.339617e-35
3.241049e+00	3.056879e-34
3.267590e+00	0.000000e+00
3.294129e+00	1.754402e-01
3.320668e+00	1.981642e-06
3.347207e+00	2.641211e-40
3.373745e+00	9.586228e-04
3.400282e+00	4.707383e-08
3.426818e+00	0.000000e+00
3.453354e+00	7.036973e-35
3.479889e+00	1.737970e-32
3.506424e+00	1.177662e-34
3.532958e+00	0.000000e+00
3.559491e+00	1.584023e-01
3.586023e+00	6.995551e-03
3.612555e+00	1.627754e-43
3.639086e+00	1.832396e-33
3.665617e+00	2.518889e-40
3.692146e+00	3.377351e-04
3.718675e+00	4.412753e-03
3.745203e+00	5.314064e-35
3.771731e+00	2.031818e-09
3.798258e+00	6.402849e-02
3.824784e+00	5.590773e-05
3.851309e+00	2.878683e-02
3.877834e+00	2.096971e-37
3.904358e+00	1.373333e-31
3.930881e+00	1.199139e-41
3.957403e+00	0.000000e+00
3.983925e+00	0.000000e+00
4.010446e+00	0.000000e+00
4.036966e+00	0.000000e+00
4.063485e+00	1.030899e-02
4.090004e+00	1.164428e-07
4.116521e+00	2.670556e-38
4.143038e+00	1.465094e-01
4.169554e+00	3.502679e-03
4.196070e+00	1.020401e-01
4.222584e+00	8.187218e-11
4.249098e+00	0.000000e+00
4.275611e+00	0.000000e+00
4.302123e+00	1.591233e-02
4.328634e+00	1.338720e-04
4.355145e+00	0.000000e+00
4.381654e+00	0.000000e+00
4.408163e+00	0.000000e+00
4.434671e+00	6.793336e-32
4.461178e+00	8.946278e-33
4.487684e+00	2.100476e-10
4.514190e+00	2.608525e-01
4.540694e+00	3.955775e-09
4.567198e+00	2.774537e-32
4.593700e+00	1.313682e-34
4.620202e+00	3.227751e-33
4.646703e+00	6.434727e-12
4.673203e+00	3.474104e-02
4.699702e+00	2.533517e-09
4.726201e+00	4.403530e-03
4.752698e+00	4.633504e-05
4.779194e+00	7.494505e-33
4.805690e+00	3.024744e-35
4.832185e+00	1.376953e-33
4.858678e+00	1.019385e-31
4.885171e+00	2.408720e-39
4.911663e+00	6.542514e-04
4.938154e+00	4.099778e-03
4.964644e+00	2.562311e-32
4.991132e+00	1.113776e-02
5.017620e+00	4.367197e-04
5.044108e+00	3.011132e-04
5.070594e+00	2.832984e-02
5.097079e+00	4.457039e-02
5.123563e+00	1.699811e-04
5.150046e+00	1.739882e-08
5.176528e+00	4.376373e-03
5.203009e+00	1.137038e-08
5.229489e+00	1.339397e-32
5.255968e+00	9.741548e-41
5.282447e+00	2.945406e-05
5.308924e+00	3.612883e-02
5.335400e+00	5.616216e-09
5.361875e+00	1.782253e-02
5.388349e+00	4.295326e-07
5.414822e+00	1.640646e-37
5.441294e+00	1.286725e-31
5.467765e+00	0.000000e+00
5.494235e+00	0.000000e+00
5.520703e+00	4.724706e-33
5.547171e+00	1.183237e-02
5.573638e+00	6.409886e-08
5.600104e+00	1.320568e-34
5.626568e+00	6.766884e-05
5.653032e+00	4.677903e-05
5.679494e+00	6.785887e-33
5.705955e+00	1.963177e-05
5.732415e+00	2.325125e-03
5.758874e+00	2.041636e-08
5.785332e+00	7.829973e-03
5.811789e+00	4.047702e-37
5.838245e+00	4.518163e-33
5.864700e+00	1.012539e-02
5.891153e+00	2.979875e-04
5.917606e+00	0.000000e+00
5.944057e+00	0.000000e+00
5.970507e+00	1.029767e-06
5.996956e+00	1.617645e-02
6.023404e+00	1.397391e-07
6.049850e+00	5.670483e-02
6.076296e+00	1.626002e-02
6.102740e+00	0.000000e+00
6.129183e+00	5.398583e-05
6.155625e+00	4.388266e-03
6.182066e+00	5.384641e-04
6.208506e+00	2.139019e-06
6.234944e+00	9.594911e-33
6.261381e+00	7.386257e-36
6.287817e+00	0.000000e+00
6.314252e+00	2.197678e-04
6.340685e+00	1.791835e-03
6.367118e+00	1.507488e-05
6.393549e+00	5.150205e-10
6.419979e+00	3.386135e-02
6.446408e+00	2.788641e-03
6.472835e+00	1.183907e-03
6.499261e+00	3.117517e-33
6.525686e+00	4.120968e-33
6.552110e+00	1.656755e-33
6.578532e+00	1.536382e-07
6.604953e+00	1.355332e-02
6.631373e+00	2.359814e-06
6.657792e+00	1.761106e-02
6.684209e+00	8.239608e-09
6.710625e+00	1.106157e-02
6.737040e+00	7.961455e-05
6.763454e+00	3.893703e-02
6.789866e+00	3.803395e-02
6.816277e+00	1.272201e-02
6.842686e+00	0.000000e+00
6.869095e+00	0.000000e+00
6.895501e+00	1.033747e-06
6.921907e+00	2.315049e-03
6.948311e+00	7.376842e-04
6.974714e+00	1.036233e-05
7.001116e+00	5.335555e-03
7.027516e+00	1.651071e-32
7.053915e+00	2.072821e-33
7.080313e+00	1.476144e-03
7.106709e+00	5.956935e-06
7.133104e+00	2.943546e-04
7.159497e+00	1.429788e-01
7.185889e+00	1.933107e-10
7.212280e+00	3.737888e-07
7.238669e+00	8.367282e-04
7.265057e+00	5.056682e-02
7.291444e+00	1.346983e-02
7.317829e+00	2.608960e-03
7.344213e+00	1.719749e-10
7.370595e+00	0.000000e+00
7.396976e+00	2.908593e-05
7.423355e+00	2.450665e-04
7.449733e+00	1.038531e-04
7.476110e+00	1.345765e-02
7.502485e+00	3.058620e-07
7.528859e+00	2.698141e-02
7.555231e+00	1.577987e-37
7.581602e+00	1.311679e-04
7.607971e+00	3.839970e-03
7.634339e+00	8.583410e-08
7.660706e+00	3.642686e-10
7.687071e+00	5.505446e-03
7.713434e+00	1.432616e-09
7.739796e+00	4.976877e-03
7.766157e+00	8.168998e-04
7.792516e+00	5.018466e-02
7.818874e+00	2.729043e-04
7.845230e+00	3.724710e-32
7.871584e+00	2.718545e-33
7.897937e+00	2.551405e-34
7.915837e+00	3.625382e-33