File: cif_pxrd_calculator/txt/iq/li0.5tio2_li0.5tio2_8262.txt
# Q [Å^-1]	I_scaled [a.u.]
0.000000e+00	0.000000e+00
2.657864e-02	0.000000e+00
5.315727e-02	0.000000e+00
7.973589e-02	0.000000e+00
1.063145e-01	0.000000e+00
1.328931e-01	0.000000e+00
1.594717e-01	0.000000e+00
1.860502e-01	0.000000e+00
2.126287e-01	0.000000e+00
2.392071e-01	0.000000e+00
2.657855e-01	0.000000e+00
2.923639e-01	0.000000e+00
3.189422e-01	0.000000e+00
3.455204e-01	0.000000e+00
3.720986e-01	0.000000e+00
3.986767e-01	0.000000e+00
4.252547e-01	0.000000e+00
4.518327e-01	0.000000e+00
4.784105e-01	0.000000e+00
5.049883e-01	0.000000e+00
5.315660e-01	0.000000e+00
5.581435e-01	0.000000e+00
5.847210e-01	0.000000e+00
6.112983e-01	0.000000e+00
6.378756e-01	1.708736e-36
6.644527e-01	3.467255e-32
6.910297e-01	0.000000e+00
7.176065e-01	0.000000e+00
7.441832e-01	0.000000e+00
7.707598e-01	0.000000e+00
7.973362e-01	0.000000e+00
8.239125e-01	0.000000e+00
8.504886e-01	0.000000e+00
8.770645e-01	0.000000e+00
9.036403e-01	0.000000e+00
9.302159e-01	0.000000e+00
9.567913e-01	0.000000e+00
9.833665e-01	0.000000e+00
1.009942e+00	0.000000e+00
1.036516e+00	0.000000e+00
1.063091e+00	0.000000e+00
1.089666e+00	0.000000e+00
1.116240e+00	0.000000e+00
1.142814e+00	0.000000e+00
1.169388e+00	0.000000e+00
1.195961e+00	0.000000e+00
1.222535e+00	3.254769e-43
1.249108e+00	1.592891e-32
1.275681e+00	9.519441e-39
1.302253e+00	7.575424e-05
1.328826e+00	4.747038e-04
1.355398e+00	0.000000e+00
1.381970e+00	0.000000e+00
1.408541e+00	3.100337e-01
1.435113e+00	1.522442e-05
1.461684e+00	0.000000e+00
1.488254e+00	0.000000e+00
1.514825e+00	0.000000e+00
1.541395e+00	0.000000e+00
1.567965e+00	0.000000e+00
1.594535e+00	0.000000e+00
1.621104e+00	0.000000e+00
1.647673e+00	0.000000e+00
1.674242e+00	0.000000e+00
1.700810e+00	0.000000e+00
1.727378e+00	0.000000e+00
1.753946e+00	0.000000e+00
1.780513e+00	0.000000e+00
1.807080e+00	3.826083e-03
1.833647e+00	3.218922e-05
1.860213e+00	0.000000e+00
1.886779e+00	0.000000e+00
1.913344e+00	0.000000e+00
1.939910e+00	0.000000e+00
1.966475e+00	5.501908e-33
1.993039e+00	5.106415e-36
2.019603e+00	0.000000e+00
2.046167e+00	0.000000e+00
2.072730e+00	0.000000e+00
2.099293e+00	0.000000e+00
2.125856e+00	9.243313e-34
2.152418e+00	1.973308e-37
2.178979e+00	0.000000e+00
2.205541e+00	1.671572e-41
2.232101e+00	9.955994e-33
2.258662e+00	7.241081e-41
2.285222e+00	0.000000e+00
2.311781e+00	6.549577e-10
2.338340e+00	3.900971e-01
2.364899e+00	2.837210e-09
2.391457e+00	0.000000e+00
2.418015e+00	0.000000e+00
2.444572e+00	1.203036e-12
2.471129e+00	1.354282e-02
2.497685e+00	2.952449e-02
2.524241e+00	4.489002e-05
2.550797e+00	2.576348e-02
2.577352e+00	5.526115e-05
2.603906e+00	1.791767e-06
2.630460e+00	1.576108e-02
2.657013e+00	4.517453e-09
2.683566e+00	0.000000e+00
2.710118e+00	0.000000e+00
2.736670e+00	0.000000e+00
2.763221e+00	0.000000e+00
2.789772e+00	4.007358e-03
2.816322e+00	1.415355e-03
2.842872e+00	1.250093e-04
2.869421e+00	0.000000e+00
2.895970e+00	6.657537e-07
2.922518e+00	1.350904e-02
2.949065e+00	0.000000e+00
2.975612e+00	0.000000e+00
3.002159e+00	0.000000e+00
3.028704e+00	0.000000e+00
3.055250e+00	0.000000e+00
3.081794e+00	0.000000e+00
3.108338e+00	0.000000e+00
3.134882e+00	0.000000e+00
3.161424e+00	9.250612e-02
3.187967e+00	6.888789e-02
3.214508e+00	4.541655e-09
3.241049e+00	0.000000e+00
3.267590e+00	1.050268e-38
3.294129e+00	3.512567e-32
3.320668e+00	2.274279e-42
3.347207e+00	2.550138e-04
3.373745e+00	3.965243e-05
3.400282e+00	1.073794e-03
3.426818e+00	0.000000e+00
3.453354e+00	0.000000e+00
3.479889e+00	0.000000e+00
3.506424e+00	4.766145e-06
3.532958e+00	1.314185e-02
3.559491e+00	4.759219e-04
3.586023e+00	1.176576e-11
3.612555e+00	7.008079e-03
3.639086e+00	1.217559e-01
3.665617e+00	0.000000e+00
3.692146e+00	0.000000e+00
3.718675e+00	0.000000e+00
3.745203e+00	8.553265e-35
3.771731e+00	2.835807e-35
3.798258e+00	1.938618e-06
3.824784e+00	1.174483e-03
3.851309e+00	6.531892e-04
3.877834e+00	0.000000e+00
3.904358e+00	2.858236e-36
3.930881e+00	2.339449e-07
3.957403e+00	2.276707e-03
3.983925e+00	2.280064e-02
4.010446e+00	4.208012e-12
4.036966e+00	0.000000e+00
4.063485e+00	0.000000e+00
4.090004e+00	8.887433e-11
4.116521e+00	2.301292e-01
4.143038e+00	5.899761e-03
4.169554e+00	1.682251e-11
4.196070e+00	6.862414e-07
4.222584e+00	1.536198e-03
4.249098e+00	3.567018e-02
4.275611e+00	1.359669e-02
4.302123e+00	2.253011e-06
4.328634e+00	1.051572e-02
4.355145e+00	1.327720e-04
4.381654e+00	7.541811e-03
4.408163e+00	0.000000e+00
4.434671e+00	1.217377e-34
4.461178e+00	1.038774e-03
4.487684e+00	1.479958e-01
4.514190e+00	3.009942e-03
4.540694e+00	8.618128e-10
4.567198e+00	2.806909e-08
4.593700e+00	5.162886e-03
4.620202e+00	1.472114e-06
4.646703e+00	8.086153e-04
4.673203e+00	8.664470e-03
4.699702e+00	2.232613e-08
4.726201e+00	2.292801e-10
4.752698e+00	7.225302e-03
4.779194e+00	3.222136e-02
4.805690e+00	6.560254e-13
4.832185e+00	0.000000e+00
4.858678e+00	2.155681e-02
4.885171e+00	2.207161e-06
4.911663e+00	0.000000e+00
4.938154e+00	1.125809e-03
4.964644e+00	4.542585e-06
4.991132e+00	1.143419e-02
5.017620e+00	9.739877e-03
5.044108e+00	3.238457e-03
5.070594e+00	1.093863e-03
5.097079e+00	1.471777e-09
5.123563e+00	2.456763e-03
5.150046e+00	1.467928e-03
5.176528e+00	1.396918e-03
5.203009e+00	3.514490e-10
5.229489e+00	2.430615e-03
5.255968e+00	5.598433e-04
5.282447e+00	1.630401e-05
5.308924e+00	1.686971e-06
5.335400e+00	3.776291e-03
5.361875e+00	3.371462e-11
5.388349e+00	1.172073e-04
5.414822e+00	1.701245e-02
5.441294e+00	1.570540e-03
5.467765e+00	2.627730e-05
5.494235e+00	3.268915e-03
5.520703e+00	4.171539e-05
5.547171e+00	6.633203e-06
5.573638e+00	2.230232e-12
5.600104e+00	6.992550e-02
5.626568e+00	2.462484e-07
5.653032e+00	3.506633e-03
5.679494e+00	1.027264e-02
5.705955e+00	6.140284e-07
5.732415e+00	3.146469e-04
5.758874e+00	0.000000e+00
5.785332e+00	1.204570e-03
5.811789e+00	4.724729e-03
5.838245e+00	1.681619e-02
5.864700e+00	4.905671e-04
5.891153e+00	0.000000e+00
5.917606e+00	1.296115e-10
5.944057e+00	3.445224e-02
5.970507e+00	4.927878e-09
5.996956e+00	1.201973e-02
6.023404e+00	1.837834e-02
6.049850e+00	6.750835e-03
6.076296e+00	6.301719e-09
6.102740e+00	0.000000e+00
6.129183e+00	0.000000e+00
6.155625e+00	0.000000e+00
6.182066e+00	3.679138e-12
6.208506e+00	1.986364e-02
6.234944e+00	1.309576e-09
6.261381e+00	3.550779e-03
6.287817e+00	7.530976e-04
6.314252e+00	7.211805e-05
6.340685e+00	8.398218e-04
6.367118e+00	2.390792e-03
6.393549e+00	6.535898e-03
6.419979e+00	3.072638e-02
6.446408e+00	4.888804e-05
6.472835e+00	3.932538e-04
6.499261e+00	6.101761e-10
6.525686e+00	2.079127e-03
6.552110e+00	1.090406e-02
6.578532e+00	1.397930e-02
6.604953e+00	2.568874e-03
6.631373e+00	2.059233e-05
6.657792e+00	5.659846e-03
6.684209e+00	2.674612e-08
6.710625e+00	2.581659e-04
6.737040e+00	1.045461e-03
6.763454e+00	1.527777e-03
6.789866e+00	2.082377e-03
6.816277e+00	1.288069e-02
6.842686e+00	1.741653e-12
6.869095e+00	2.699047e-05
6.895501e+00	1.196050e-02
6.921907e+00	1.472679e-02
6.948311e+00	3.859184e-10
6.974714e+00	7.536725e-09
7.001116e+00	2.620181e-02
7.027516e+00	3.404474e-04
7.053915e+00	5.011858e-04
7.080313e+00	2.104114e-03
7.106709e+00	7.992943e-05
7.133104e+00	2.863589e-02
7.159497e+00	1.668735e-03
7.185889e+00	9.294541e-35
7.212280e+00	3.121563e-05
7.238669e+00	1.956085e-04
7.265057e+00	1.605710e-03
7.291444e+00	1.360579e-04
7.317829e+00	2.819034e-02
7.344213e+00	8.147904e-03
7.370595e+00	1.380896e-03
7.396976e+00	5.832515e-03
7.423355e+00	6.515499e-03
7.449733e+00	2.055699e-02
7.476110e+00	6.500005e-10
7.502485e+00	2.471766e-05
7.528859e+00	4.572220e-03
7.555231e+00	2.015593e-04
7.581602e+00	1.385710e-03
7.607971e+00	8.862314e-03
7.634339e+00	5.053251e-04
7.660706e+00	3.696284e-04
7.687071e+00	9.625916e-03
7.713434e+00	3.062750e-03
7.739796e+00	2.703059e-05
7.766157e+00	3.928728e-03
7.792516e+00	8.383130e-07
7.818874e+00	2.804570e-05
7.845230e+00	1.077944e-02
7.871584e+00	7.222329e-03
7.897937e+00	2.702326e-03
7.915837e+00	4.105235e-06