File: cif_pxrd_calculator/txt/itwotheta/li0.5tio2_li2fev3o8_180011.txt
# 2theta [deg]	I_scaled [a.u.]	Wavelength = 0.20721 Å
0.000000e+00	0.000000e+00
5.022110e-02	0.000000e+00
1.004422e-01	0.000000e+00
1.506633e-01	0.000000e+00
2.008844e-01	0.000000e+00
2.511055e-01	0.000000e+00
3.013266e-01	0.000000e+00
3.515477e-01	0.000000e+00
4.017688e-01	0.000000e+00
4.519899e-01	0.000000e+00
5.022110e-01	0.000000e+00
5.524321e-01	0.000000e+00
6.026532e-01	0.000000e+00
6.528743e-01	0.000000e+00
7.030954e-01	0.000000e+00
7.533165e-01	0.000000e+00
8.035376e-01	0.000000e+00
8.537587e-01	0.000000e+00
9.039798e-01	0.000000e+00
9.542009e-01	1.475697e-38
1.004422e+00	2.230324e-31
1.054643e+00	4.116215e-41
1.104864e+00	0.000000e+00
1.155085e+00	0.000000e+00
1.205306e+00	0.000000e+00
1.255527e+00	0.000000e+00
1.305749e+00	0.000000e+00
1.355970e+00	0.000000e+00
1.406191e+00	0.000000e+00
1.456412e+00	0.000000e+00
1.506633e+00	0.000000e+00
1.556854e+00	0.000000e+00
1.607075e+00	0.000000e+00
1.657296e+00	0.000000e+00
1.707517e+00	0.000000e+00
1.757738e+00	0.000000e+00
1.807960e+00	0.000000e+00
1.858181e+00	6.415936e-35
1.908402e+00	1.787084e-02
1.958623e+00	2.841759e-03
2.008844e+00	1.652095e-01
2.059065e+00	3.363657e-12
2.109286e+00	0.000000e+00
2.159507e+00	0.000000e+00
2.209728e+00	0.000000e+00
2.259949e+00	0.000000e+00
2.310171e+00	2.907023e-02
2.360392e+00	7.552822e-08
2.410613e+00	4.808469e-33
2.460834e+00	1.758727e-34
2.511055e+00	0.000000e+00
2.561276e+00	0.000000e+00
2.611497e+00	0.000000e+00
2.661718e+00	0.000000e+00
2.711939e+00	0.000000e+00
2.762160e+00	0.000000e+00
2.812382e+00	0.000000e+00
2.862603e+00	0.000000e+00
2.912824e+00	0.000000e+00
2.963045e+00	1.266172e-36
3.013266e+00	2.329979e-31
3.063487e+00	7.972022e-36
3.113708e+00	1.379296e-32
3.163929e+00	2.890620e-03
3.214150e+00	6.172697e-07
3.264371e+00	8.951381e-01
3.314593e+00	5.901495e-08
3.364814e+00	0.000000e+00
3.415035e+00	0.000000e+00
3.465256e+00	0.000000e+00
3.515477e+00	0.000000e+00
3.565698e+00	0.000000e+00
3.615919e+00	1.111803e-05
3.666140e+00	4.066485e-07
3.716361e+00	1.425501e-11
3.766582e+00	3.691157e-02
3.816804e+00	5.345264e-08
3.867025e+00	4.688218e-01
3.917246e+00	7.450060e-05
3.967467e+00	8.303953e-03
4.017688e+00	5.607851e-02
4.067909e+00	4.218262e-34
4.118130e+00	8.699158e-32
4.168351e+00	0.000000e+00
4.218572e+00	0.000000e+00
4.268793e+00	8.988799e-12
4.319015e+00	2.113943e-01
4.369236e+00	2.569900e-03
4.419457e+00	1.202480e-34
4.469678e+00	1.571127e-33
4.519899e+00	0.000000e+00
4.570120e+00	0.000000e+00
4.620341e+00	9.217961e-03
4.670562e+00	7.755161e-05
4.720783e+00	0.000000e+00
4.771004e+00	1.453594e-10
4.821226e+00	4.152262e-02
4.871447e+00	2.840128e-03
4.921668e+00	2.419559e-04
4.971889e+00	3.161330e-03
5.022110e+00	1.310501e-32
5.072331e+00	2.343290e-04
5.122552e+00	4.324054e-04
5.172773e+00	2.578444e-03
5.222994e+00	0.000000e+00
5.273215e+00	2.217840e-03
5.323437e+00	2.058415e-06
5.373658e+00	0.000000e+00
5.423879e+00	0.000000e+00
5.474100e+00	3.336607e-11
5.524321e+00	4.571187e-03
5.574542e+00	7.647373e-12
5.624763e+00	4.597588e-35
5.674984e+00	4.915283e-06
5.725205e+00	3.909532e-01
5.775426e+00	2.652912e-02
5.825648e+00	4.653681e-04
5.875869e+00	4.849108e-06
5.926090e+00	1.988153e-06
5.976311e+00	4.970821e-05
6.026532e+00	4.049370e-04
6.076753e+00	6.464934e-02
6.126974e+00	1.170914e-05
6.177195e+00	7.340526e-05
6.227416e+00	4.767436e-01
6.277637e+00	8.798627e-11
6.327858e+00	2.232428e-06
6.378080e+00	5.089380e-02
6.428301e+00	5.569360e-05
6.478522e+00	3.496168e-04
6.528743e+00	3.762005e-02
6.578964e+00	5.168848e-08
6.629185e+00	1.204334e-03
6.679406e+00	1.852287e-02
6.729627e+00	6.503543e-09
6.779848e+00	3.015028e-31
6.830069e+00	1.206286e-03
6.880291e+00	1.994059e-04
6.930512e+00	3.545730e-02
6.980733e+00	2.398641e-03
7.030954e+00	7.889782e-09
7.081175e+00	4.546842e-07
7.131396e+00	2.122195e-03
7.181617e+00	4.410320e-33
7.231838e+00	7.009367e-10
7.282059e+00	1.059378e-02
7.332280e+00	1.844189e-01
7.382502e+00	1.298255e-01
7.432723e+00	7.306308e-05
7.482944e+00	8.077979e-33
7.533165e+00	4.606693e-02
7.583386e+00	4.927110e-03
7.633607e+00	2.754025e-03
7.683828e+00	3.777774e-03
7.734049e+00	3.412120e-04
7.784270e+00	4.337039e-03
7.834491e+00	5.048098e-03
7.884713e+00	1.348325e-04
7.934934e+00	9.573191e-02
7.985155e+00	4.168189e-02
8.035376e+00	9.827403e-03
8.085597e+00	5.800317e-02
8.135818e+00	1.169389e-06
8.186039e+00	4.114501e-05
8.236260e+00	2.182792e-02
8.286481e+00	2.333475e-08
8.336702e+00	5.012251e-03
8.386924e+00	5.798189e-06
8.437145e+00	1.586042e-02
8.487366e+00	1.110391e-02
8.537587e+00	3.850168e-04
8.587808e+00	7.589965e-07
8.638029e+00	1.897665e-04
8.688250e+00	1.730681e-02
8.738471e+00	3.930971e-07
8.788692e+00	5.641185e-04
8.838913e+00	1.204308e-07
8.889135e+00	9.460717e-04
8.939356e+00	2.019721e-07
8.989577e+00	1.409574e-31
9.039798e+00	1.578692e-33
9.090019e+00	6.580188e-11
9.140240e+00	9.015040e-03
9.190461e+00	2.594788e-04
9.240682e+00	5.065717e-02
9.290903e+00	1.229338e-02
9.341124e+00	1.460399e-02
9.391346e+00	3.552582e-02
9.441567e+00	2.342158e-09
9.491788e+00	8.115662e-03
9.542009e+00	2.449764e-03
9.592230e+00	3.345536e-03
9.642451e+00	1.133075e-02
9.692672e+00	2.809804e-03
9.742893e+00	1.044083e-02
9.793114e+00	4.130845e-02
9.843335e+00	9.421631e-04
9.893557e+00	1.424861e-03
9.943778e+00	6.741357e-03
9.993999e+00	3.043851e-06
1.004422e+01	6.520888e-03
1.009444e+01	8.242473e-08
1.014466e+01	3.307393e-02
1.019488e+01	3.284809e-02
1.024510e+01	1.752260e-06
1.029533e+01	5.276090e-03
1.034555e+01	8.725471e-05
1.039577e+01	9.771582e-04
1.044599e+01	5.050444e-04
1.049621e+01	1.492414e-02
1.054643e+01	2.971559e-04
1.059665e+01	1.547362e-05
1.064687e+01	8.221192e-04
1.069709e+01	1.076720e-13
1.074732e+01	5.817307e-04
1.079754e+01	1.403577e-03
1.084776e+01	3.147303e-04
1.089798e+01	3.399950e-03
1.094820e+01	1.691589e-03
1.099842e+01	2.799219e-05
1.104864e+01	1.413744e-02
1.109886e+01	2.116041e-08
1.114908e+01	8.086304e-03
1.119931e+01	2.465160e-02
1.124953e+01	2.923330e-04
1.129975e+01	3.094023e-04
1.134997e+01	1.973844e-04
1.140019e+01	3.764790e-03
1.145041e+01	2.486671e-02
1.150063e+01	8.273272e-02
1.155085e+01	4.451835e-03
1.160107e+01	2.475640e-02
1.165130e+01	2.839645e-04
1.170152e+01	7.246050e-03
1.175174e+01	9.060727e-04
1.180196e+01	2.935069e-02
1.185218e+01	6.198752e-03
1.190240e+01	1.879558e-03
1.195262e+01	1.400695e-05
1.200284e+01	8.634709e-03
1.205306e+01	3.552455e-03
1.210328e+01	1.924438e-08
1.215351e+01	1.757532e-04
1.220373e+01	1.301299e-02
1.225395e+01	1.101803e-09
1.230417e+01	1.298579e-04
1.235439e+01	2.176788e-02
1.240461e+01	4.310770e-07
1.245483e+01	1.600501e-02
1.250505e+01	1.526567e-05
1.255527e+01	5.485536e-05
1.260550e+01	3.269207e-03
1.265572e+01	1.591457e-02
1.270594e+01	2.447981e-03
1.275616e+01	7.367268e-04
1.280638e+01	3.792096e-02
1.285660e+01	3.949892e-03
1.290682e+01	1.244784e-02
1.295704e+01	3.373401e-03
1.300726e+01	3.656349e-04
1.305749e+01	3.244751e-02
1.310771e+01	4.587725e-03
1.315793e+01	2.605244e-03
1.320815e+01	1.855151e-03
1.325837e+01	9.602937e-05
1.330859e+01	2.213960e-02
1.335881e+01	1.889304e-02
1.340903e+01	2.023394e-02
1.345925e+01	3.501348e-03
1.350948e+01	1.555543e-07
1.355970e+01	9.951098e-04
1.360992e+01	8.511354e-05
1.366014e+01	2.720570e-04
1.371036e+01	1.136962e-02
1.376058e+01	4.678314e-02
1.381080e+01	5.830018e-04
1.386102e+01	2.947475e-03
1.391124e+01	5.417488e-05
1.396147e+01	5.688008e-04
1.401169e+01	2.017624e-02
1.406191e+01	3.387235e-03
1.411213e+01	1.613895e-02
1.416235e+01	2.158585e-03
1.421257e+01	8.547364e-04
1.426279e+01	1.539350e-02
1.431301e+01	1.054120e-02
1.436323e+01	1.566433e-03
1.441346e+01	2.186660e-03
1.446368e+01	2.721976e-02
1.451390e+01	3.962783e-04
1.456412e+01	1.034360e-03
1.461434e+01	1.570089e-04
1.466456e+01	1.524270e-04
1.471478e+01	1.118561e-03
1.476500e+01	1.869351e-02
1.481522e+01	6.245106e-03
1.486545e+01	1.010548e-02
1.491567e+01	9.348906e-03
1.496589e+01	5.855953e-03
1.500000e+01	1.261819e-06