File: cif_pxrd_calculator/txt/itwotheta/li0.5tio2_li0.5tio2_8262.txt
# 2theta [deg]	I_scaled [a.u.]	Wavelength = 0.20721 Å
0.000000e+00	0.000000e+00
5.022110e-02	0.000000e+00
1.004422e-01	0.000000e+00
1.506633e-01	0.000000e+00
2.008844e-01	0.000000e+00
2.511055e-01	0.000000e+00
3.013266e-01	0.000000e+00
3.515477e-01	0.000000e+00
4.017688e-01	0.000000e+00
4.519899e-01	0.000000e+00
5.022110e-01	0.000000e+00
5.524321e-01	0.000000e+00
6.026532e-01	0.000000e+00
6.528743e-01	0.000000e+00
7.030954e-01	0.000000e+00
7.533165e-01	0.000000e+00
8.035376e-01	0.000000e+00
8.537587e-01	0.000000e+00
9.039798e-01	0.000000e+00
9.542009e-01	0.000000e+00
1.004422e+00	0.000000e+00
1.054643e+00	0.000000e+00
1.104864e+00	0.000000e+00
1.155085e+00	0.000000e+00
1.205306e+00	1.708736e-36
1.255527e+00	3.467255e-32
1.305749e+00	0.000000e+00
1.355970e+00	0.000000e+00
1.406191e+00	0.000000e+00
1.456412e+00	0.000000e+00
1.506633e+00	0.000000e+00
1.556854e+00	0.000000e+00
1.607075e+00	0.000000e+00
1.657296e+00	0.000000e+00
1.707517e+00	0.000000e+00
1.757738e+00	0.000000e+00
1.807960e+00	0.000000e+00
1.858181e+00	0.000000e+00
1.908402e+00	0.000000e+00
1.958623e+00	0.000000e+00
2.008844e+00	0.000000e+00
2.059065e+00	0.000000e+00
2.109286e+00	0.000000e+00
2.159507e+00	0.000000e+00
2.209728e+00	0.000000e+00
2.259949e+00	0.000000e+00
2.310171e+00	3.254769e-43
2.360392e+00	1.592891e-32
2.410613e+00	9.519441e-39
2.460834e+00	7.575424e-05
2.511055e+00	4.747038e-04
2.561276e+00	0.000000e+00
2.611497e+00	0.000000e+00
2.661718e+00	3.100337e-01
2.711939e+00	1.522442e-05
2.762160e+00	0.000000e+00
2.812382e+00	0.000000e+00
2.862603e+00	0.000000e+00
2.912824e+00	0.000000e+00
2.963045e+00	0.000000e+00
3.013266e+00	0.000000e+00
3.063487e+00	0.000000e+00
3.113708e+00	0.000000e+00
3.163929e+00	0.000000e+00
3.214150e+00	0.000000e+00
3.264371e+00	0.000000e+00
3.314593e+00	0.000000e+00
3.364814e+00	0.000000e+00
3.415035e+00	3.826083e-03
3.465256e+00	3.218922e-05
3.515477e+00	0.000000e+00
3.565698e+00	0.000000e+00
3.615919e+00	0.000000e+00
3.666140e+00	0.000000e+00
3.716361e+00	5.501908e-33
3.766582e+00	5.106415e-36
3.816804e+00	0.000000e+00
3.867025e+00	0.000000e+00
3.917246e+00	0.000000e+00
3.967467e+00	0.000000e+00
4.017688e+00	9.243313e-34
4.067909e+00	1.973308e-37
4.118130e+00	0.000000e+00
4.168351e+00	1.671572e-41
4.218572e+00	9.955994e-33
4.268793e+00	7.241081e-41
4.319015e+00	0.000000e+00
4.369236e+00	6.549577e-10
4.419457e+00	3.900971e-01
4.469678e+00	2.837210e-09
4.519899e+00	0.000000e+00
4.570120e+00	0.000000e+00
4.620341e+00	1.203036e-12
4.670562e+00	1.354282e-02
4.720783e+00	2.952449e-02
4.771004e+00	4.489002e-05
4.821226e+00	2.576348e-02
4.871447e+00	5.526115e-05
4.921668e+00	1.791767e-06
4.971889e+00	1.576108e-02
5.022110e+00	4.517453e-09
5.072331e+00	0.000000e+00
5.122552e+00	0.000000e+00
5.172773e+00	0.000000e+00
5.222994e+00	0.000000e+00
5.273215e+00	4.007358e-03
5.323437e+00	1.415355e-03
5.373658e+00	1.250093e-04
5.423879e+00	0.000000e+00
5.474100e+00	6.657537e-07
5.524321e+00	1.350904e-02
5.574542e+00	0.000000e+00
5.624763e+00	0.000000e+00
5.674984e+00	0.000000e+00
5.725205e+00	0.000000e+00
5.775426e+00	0.000000e+00
5.825648e+00	0.000000e+00
5.875869e+00	0.000000e+00
5.926090e+00	0.000000e+00
5.976311e+00	9.250612e-02
6.026532e+00	6.888789e-02
6.076753e+00	4.541655e-09
6.126974e+00	0.000000e+00
6.177195e+00	1.050268e-38
6.227416e+00	3.512567e-32
6.277637e+00	2.274279e-42
6.327858e+00	2.550138e-04
6.378080e+00	3.965243e-05
6.428301e+00	1.073794e-03
6.478522e+00	0.000000e+00
6.528743e+00	0.000000e+00
6.578964e+00	0.000000e+00
6.629185e+00	4.766145e-06
6.679406e+00	1.314185e-02
6.729627e+00	4.759219e-04
6.779848e+00	1.176576e-11
6.830069e+00	7.008079e-03
6.880291e+00	1.217559e-01
6.930512e+00	0.000000e+00
6.980733e+00	0.000000e+00
7.030954e+00	0.000000e+00
7.081175e+00	8.553265e-35
7.131396e+00	2.835807e-35
7.181617e+00	1.938618e-06
7.231838e+00	1.174483e-03
7.282059e+00	6.531892e-04
7.332280e+00	0.000000e+00
7.382502e+00	2.858236e-36
7.432723e+00	2.339449e-07
7.482944e+00	2.276707e-03
7.533165e+00	2.280064e-02
7.583386e+00	4.208012e-12
7.633607e+00	0.000000e+00
7.683828e+00	0.000000e+00
7.734049e+00	8.887433e-11
7.784270e+00	2.301292e-01
7.834491e+00	5.899761e-03
7.884713e+00	1.682251e-11
7.934934e+00	6.862414e-07
7.985155e+00	1.536198e-03
8.035376e+00	3.567018e-02
8.085597e+00	1.359669e-02
8.135818e+00	2.253011e-06
8.186039e+00	1.051572e-02
8.236260e+00	1.327720e-04
8.286481e+00	7.541811e-03
8.336702e+00	0.000000e+00
8.386924e+00	1.217377e-34
8.437145e+00	1.038774e-03
8.487366e+00	1.479958e-01
8.537587e+00	3.009942e-03
8.587808e+00	8.618128e-10
8.638029e+00	2.806909e-08
8.688250e+00	5.162886e-03
8.738471e+00	1.472114e-06
8.788692e+00	8.086153e-04
8.838913e+00	8.664470e-03
8.889135e+00	2.232613e-08
8.939356e+00	2.292801e-10
8.989577e+00	7.225302e-03
9.039798e+00	3.222136e-02
9.090019e+00	6.560254e-13
9.140240e+00	0.000000e+00
9.190461e+00	2.155681e-02
9.240682e+00	2.207161e-06
9.290903e+00	0.000000e+00
9.341124e+00	1.125809e-03
9.391346e+00	4.542585e-06
9.441567e+00	1.143419e-02
9.491788e+00	9.739877e-03
9.542009e+00	3.238457e-03
9.592230e+00	1.093863e-03
9.642451e+00	1.471777e-09
9.692672e+00	2.456763e-03
9.742893e+00	1.467928e-03
9.793114e+00	1.396918e-03
9.843335e+00	3.514490e-10
9.893557e+00	2.430615e-03
9.943778e+00	5.598433e-04
9.993999e+00	1.630401e-05
1.004422e+01	1.686971e-06
1.009444e+01	3.776291e-03
1.014466e+01	3.371462e-11
1.019488e+01	1.172073e-04
1.024510e+01	1.701245e-02
1.029533e+01	1.570540e-03
1.034555e+01	2.627730e-05
1.039577e+01	3.268915e-03
1.044599e+01	4.171539e-05
1.049621e+01	6.633203e-06
1.054643e+01	2.230232e-12
1.059665e+01	6.992550e-02
1.064687e+01	2.462484e-07
1.069709e+01	3.506633e-03
1.074732e+01	1.027264e-02
1.079754e+01	6.140284e-07
1.084776e+01	3.146469e-04
1.089798e+01	0.000000e+00
1.094820e+01	1.204570e-03
1.099842e+01	4.724729e-03
1.104864e+01	1.681619e-02
1.109886e+01	4.905671e-04
1.114908e+01	0.000000e+00
1.119931e+01	1.296115e-10
1.124953e+01	3.445224e-02
1.129975e+01	4.927878e-09
1.134997e+01	1.201973e-02
1.140019e+01	1.837834e-02
1.145041e+01	6.750835e-03
1.150063e+01	6.301719e-09
1.155085e+01	0.000000e+00
1.160107e+01	0.000000e+00
1.165130e+01	0.000000e+00
1.170152e+01	3.679138e-12
1.175174e+01	1.986364e-02
1.180196e+01	1.309576e-09
1.185218e+01	3.550779e-03
1.190240e+01	7.530976e-04
1.195262e+01	7.211805e-05
1.200284e+01	8.398218e-04
1.205306e+01	2.390792e-03
1.210328e+01	6.535898e-03
1.215351e+01	3.072638e-02
1.220373e+01	4.888804e-05
1.225395e+01	3.932538e-04
1.230417e+01	6.101761e-10
1.235439e+01	2.079127e-03
1.240461e+01	1.090406e-02
1.245483e+01	1.397930e-02
1.250505e+01	2.568874e-03
1.255527e+01	2.059233e-05
1.260550e+01	5.659846e-03
1.265572e+01	2.674612e-08
1.270594e+01	2.581659e-04
1.275616e+01	1.045461e-03
1.280638e+01	1.527777e-03
1.285660e+01	2.082377e-03
1.290682e+01	1.288069e-02
1.295704e+01	1.741653e-12
1.300726e+01	2.699047e-05
1.305749e+01	1.196050e-02
1.310771e+01	1.472679e-02
1.315793e+01	3.859184e-10
1.320815e+01	7.536725e-09
1.325837e+01	2.620181e-02
1.330859e+01	3.404474e-04
1.335881e+01	5.011858e-04
1.340903e+01	2.104114e-03
1.345925e+01	7.992943e-05
1.350948e+01	2.863589e-02
1.355970e+01	1.668735e-03
1.360992e+01	9.294541e-35
1.366014e+01	3.121563e-05
1.371036e+01	1.956085e-04
1.376058e+01	1.605710e-03
1.381080e+01	1.360579e-04
1.386102e+01	2.819034e-02
1.391124e+01	8.147904e-03
1.396147e+01	1.380896e-03
1.401169e+01	5.832515e-03
1.406191e+01	6.515499e-03
1.411213e+01	2.055699e-02
1.416235e+01	6.500005e-10
1.421257e+01	2.471766e-05
1.426279e+01	4.572220e-03
1.431301e+01	2.015593e-04
1.436323e+01	1.385710e-03
1.441346e+01	8.862314e-03
1.446368e+01	5.053251e-04
1.451390e+01	3.696284e-04
1.456412e+01	9.625916e-03
1.461434e+01	3.062750e-03
1.466456e+01	2.703059e-05
1.471478e+01	3.928728e-03
1.476500e+01	8.383130e-07
1.481522e+01	2.804570e-05
1.486545e+01	1.077944e-02
1.491567e+01	7.222329e-03
1.496589e+01	2.702326e-03
1.500000e+01	4.105235e-06