File: cif_pxrd_calculator/txt/itwotheta/li0.5tio2_Imma_36449.txt
# 2theta [deg]	I_scaled [a.u.]	Wavelength = 0.20721 Å
0.000000e+00	0.000000e+00
5.022110e-02	0.000000e+00
1.004422e-01	0.000000e+00
1.506633e-01	0.000000e+00
2.008844e-01	0.000000e+00
2.511055e-01	0.000000e+00
3.013266e-01	0.000000e+00
3.515477e-01	0.000000e+00
4.017688e-01	0.000000e+00
4.519899e-01	0.000000e+00
5.022110e-01	0.000000e+00
5.524321e-01	0.000000e+00
6.026532e-01	0.000000e+00
6.528743e-01	0.000000e+00
7.030954e-01	0.000000e+00
7.533165e-01	0.000000e+00
8.035376e-01	0.000000e+00
8.537587e-01	0.000000e+00
9.039798e-01	0.000000e+00
9.542009e-01	0.000000e+00
1.004422e+00	0.000000e+00
1.054643e+00	0.000000e+00
1.104864e+00	0.000000e+00
1.155085e+00	0.000000e+00
1.205306e+00	0.000000e+00
1.255527e+00	1.796685e-42
1.305749e+00	4.217160e-32
1.355970e+00	1.208725e-38
1.406191e+00	0.000000e+00
1.456412e+00	0.000000e+00
1.506633e+00	0.000000e+00
1.556854e+00	0.000000e+00
1.607075e+00	0.000000e+00
1.657296e+00	0.000000e+00
1.707517e+00	0.000000e+00
1.757738e+00	0.000000e+00
1.807960e+00	0.000000e+00
1.858181e+00	0.000000e+00
1.908402e+00	0.000000e+00
1.958623e+00	0.000000e+00
2.008844e+00	0.000000e+00
2.059065e+00	0.000000e+00
2.109286e+00	0.000000e+00
2.159507e+00	0.000000e+00
2.209728e+00	0.000000e+00
2.259949e+00	0.000000e+00
2.310171e+00	0.000000e+00
2.360392e+00	0.000000e+00
2.410613e+00	0.000000e+00
2.460834e+00	0.000000e+00
2.511055e+00	0.000000e+00
2.561276e+00	0.000000e+00
2.611497e+00	6.030460e-03
2.661718e+00	1.420249e-07
2.711939e+00	0.000000e+00
2.762160e+00	0.000000e+00
2.812382e+00	0.000000e+00
2.862603e+00	9.793129e-41
2.912824e+00	1.341669e-32
2.963045e+00	2.244547e-41
3.013266e+00	0.000000e+00
3.063487e+00	1.882576e-42
3.113708e+00	1.016401e-32
3.163929e+00	6.838271e-04
3.214150e+00	3.884322e-02
3.264371e+00	0.000000e+00
3.314593e+00	0.000000e+00
3.364814e+00	1.058883e-01
3.415035e+00	2.049125e-04
3.465256e+00	0.000000e+00
3.515477e+00	0.000000e+00
3.565698e+00	0.000000e+00
3.615919e+00	0.000000e+00
3.666140e+00	0.000000e+00
3.716361e+00	0.000000e+00
3.766582e+00	0.000000e+00
3.816804e+00	0.000000e+00
3.867025e+00	4.846103e-41
3.917246e+00	1.074994e-31
3.967467e+00	9.156751e-35
4.017688e+00	1.658558e-42
4.067909e+00	8.117019e-32
4.118130e+00	4.850894e-38
4.168351e+00	0.000000e+00
4.218572e+00	1.759850e-72
4.268793e+00	1.156330e-64
4.319015e+00	9.277853e-74
4.369236e+00	0.000000e+00
4.419457e+00	1.191068e-38
4.469678e+00	4.140682e-32
4.519899e+00	1.757788e-42
4.570120e+00	0.000000e+00
4.620341e+00	0.000000e+00
4.670562e+00	0.000000e+00
4.720783e+00	0.000000e+00
4.771004e+00	0.000000e+00
4.821226e+00	0.000000e+00
4.871447e+00	1.929098e-03
4.921668e+00	1.333573e-03
4.971889e+00	3.984472e-06
5.022110e+00	7.596743e-02
5.072331e+00	6.222371e-11
5.122552e+00	0.000000e+00
5.172773e+00	0.000000e+00
5.222994e+00	5.160441e-03
5.273215e+00	3.567380e-03
5.323437e+00	0.000000e+00
5.373658e+00	0.000000e+00
5.423879e+00	0.000000e+00
5.474100e+00	0.000000e+00
5.524321e+00	0.000000e+00
5.574542e+00	0.000000e+00
5.624763e+00	0.000000e+00
5.674984e+00	0.000000e+00
5.725205e+00	0.000000e+00
5.775426e+00	8.453070e-10
5.825648e+00	5.034704e-01
5.875869e+00	3.661784e-09
5.926090e+00	5.925236e-40
5.976311e+00	9.541850e-33
6.026532e+00	8.455558e-34
6.076753e+00	2.339617e-35
6.126974e+00	3.056879e-34
6.177195e+00	0.000000e+00
6.227416e+00	1.754402e-01
6.277637e+00	1.981642e-06
6.327858e+00	2.641211e-40
6.378080e+00	9.586228e-04
6.428301e+00	4.707383e-08
6.478522e+00	0.000000e+00
6.528743e+00	7.036973e-35
6.578964e+00	1.737970e-32
6.629185e+00	1.177662e-34
6.679406e+00	0.000000e+00
6.729627e+00	1.584023e-01
6.779848e+00	6.995551e-03
6.830069e+00	1.627754e-43
6.880291e+00	1.832396e-33
6.930512e+00	2.518889e-40
6.980733e+00	3.377351e-04
7.030954e+00	4.412753e-03
7.081175e+00	5.314064e-35
7.131396e+00	2.031818e-09
7.181617e+00	6.402849e-02
7.231838e+00	5.590773e-05
7.282059e+00	2.878683e-02
7.332280e+00	2.096971e-37
7.382502e+00	1.373333e-31
7.432723e+00	1.199139e-41
7.482944e+00	0.000000e+00
7.533165e+00	0.000000e+00
7.583386e+00	0.000000e+00
7.633607e+00	0.000000e+00
7.683828e+00	1.030899e-02
7.734049e+00	1.164428e-07
7.784270e+00	2.670556e-38
7.834491e+00	1.465094e-01
7.884713e+00	3.502679e-03
7.934934e+00	1.020401e-01
7.985155e+00	8.187218e-11
8.035376e+00	0.000000e+00
8.085597e+00	0.000000e+00
8.135818e+00	1.591233e-02
8.186039e+00	1.338720e-04
8.236260e+00	0.000000e+00
8.286481e+00	0.000000e+00
8.336702e+00	0.000000e+00
8.386924e+00	6.793336e-32
8.437145e+00	8.946278e-33
8.487366e+00	2.100476e-10
8.537587e+00	2.608525e-01
8.587808e+00	3.955775e-09
8.638029e+00	2.774537e-32
8.688250e+00	1.313682e-34
8.738471e+00	3.227751e-33
8.788692e+00	6.434727e-12
8.838913e+00	3.474104e-02
8.889135e+00	2.533517e-09
8.939356e+00	4.403530e-03
8.989577e+00	4.633504e-05
9.039798e+00	7.494505e-33
9.090019e+00	3.024744e-35
9.140240e+00	1.376953e-33
9.190461e+00	1.019385e-31
9.240682e+00	2.408720e-39
9.290903e+00	6.542514e-04
9.341124e+00	4.099778e-03
9.391346e+00	2.562311e-32
9.441567e+00	1.113776e-02
9.491788e+00	4.367197e-04
9.542009e+00	3.011132e-04
9.592230e+00	2.832984e-02
9.642451e+00	4.457039e-02
9.692672e+00	1.699811e-04
9.742893e+00	1.739882e-08
9.793114e+00	4.376373e-03
9.843335e+00	1.137038e-08
9.893557e+00	1.339397e-32
9.943778e+00	9.741548e-41
9.993999e+00	2.945406e-05
1.004422e+01	3.612883e-02
1.009444e+01	5.616216e-09
1.014466e+01	1.782253e-02
1.019488e+01	4.295326e-07
1.024510e+01	1.640646e-37
1.029533e+01	1.286725e-31
1.034555e+01	0.000000e+00
1.039577e+01	0.000000e+00
1.044599e+01	4.724706e-33
1.049621e+01	1.183237e-02
1.054643e+01	6.409886e-08
1.059665e+01	1.320568e-34
1.064687e+01	6.766884e-05
1.069709e+01	4.677903e-05
1.074732e+01	6.785887e-33
1.079754e+01	1.963177e-05
1.084776e+01	2.325125e-03
1.089798e+01	2.041636e-08
1.094820e+01	7.829973e-03
1.099842e+01	4.047702e-37
1.104864e+01	4.518163e-33
1.109886e+01	1.012539e-02
1.114908e+01	2.979875e-04
1.119931e+01	0.000000e+00
1.124953e+01	0.000000e+00
1.129975e+01	1.029767e-06
1.134997e+01	1.617645e-02
1.140019e+01	1.397391e-07
1.145041e+01	5.670483e-02
1.150063e+01	1.626002e-02
1.155085e+01	0.000000e+00
1.160107e+01	5.398583e-05
1.165130e+01	4.388266e-03
1.170152e+01	5.384641e-04
1.175174e+01	2.139019e-06
1.180196e+01	9.594911e-33
1.185218e+01	7.386257e-36
1.190240e+01	0.000000e+00
1.195262e+01	2.197678e-04
1.200284e+01	1.791835e-03
1.205306e+01	1.507488e-05
1.210328e+01	5.150205e-10
1.215351e+01	3.386135e-02
1.220373e+01	2.788641e-03
1.225395e+01	1.183907e-03
1.230417e+01	3.117517e-33
1.235439e+01	4.120968e-33
1.240461e+01	1.656755e-33
1.245483e+01	1.536382e-07
1.250505e+01	1.355332e-02
1.255527e+01	2.359814e-06
1.260550e+01	1.761106e-02
1.265572e+01	8.239608e-09
1.270594e+01	1.106157e-02
1.275616e+01	7.961455e-05
1.280638e+01	3.893703e-02
1.285660e+01	3.803395e-02
1.290682e+01	1.272201e-02
1.295704e+01	0.000000e+00
1.300726e+01	0.000000e+00
1.305749e+01	1.033747e-06
1.310771e+01	2.315049e-03
1.315793e+01	7.376842e-04
1.320815e+01	1.036233e-05
1.325837e+01	5.335555e-03
1.330859e+01	1.651071e-32
1.335881e+01	2.072821e-33
1.340903e+01	1.476144e-03
1.345925e+01	5.956935e-06
1.350948e+01	2.943546e-04
1.355970e+01	1.429788e-01
1.360992e+01	1.933107e-10
1.366014e+01	3.737888e-07
1.371036e+01	8.367282e-04
1.376058e+01	5.056682e-02
1.381080e+01	1.346983e-02
1.386102e+01	2.608960e-03
1.391124e+01	1.719749e-10
1.396147e+01	0.000000e+00
1.401169e+01	2.908593e-05
1.406191e+01	2.450665e-04
1.411213e+01	1.038531e-04
1.416235e+01	1.345765e-02
1.421257e+01	3.058620e-07
1.426279e+01	2.698141e-02
1.431301e+01	1.577987e-37
1.436323e+01	1.311679e-04
1.441346e+01	3.839970e-03
1.446368e+01	8.583410e-08
1.451390e+01	3.642686e-10
1.456412e+01	5.505446e-03
1.461434e+01	1.432616e-09
1.466456e+01	4.976877e-03
1.471478e+01	8.168998e-04
1.476500e+01	5.018466e-02
1.481522e+01	2.729043e-04
1.486545e+01	3.724710e-32
1.491567e+01	2.718545e-33
1.496589e+01	2.551405e-34
1.500000e+01	3.625382e-33