File: cif_pxrd_calculator/example/txt/iq/li0.5tio2_li2fev3o8_180011.txt
# Q [Å^-1]	I_scaled [a.u.]
0.000000e+00	0.000000e+00
2.657864e-02	0.000000e+00
5.315727e-02	0.000000e+00
7.973589e-02	0.000000e+00
1.063145e-01	0.000000e+00
1.328931e-01	0.000000e+00
1.594717e-01	0.000000e+00
1.860502e-01	0.000000e+00
2.126287e-01	0.000000e+00
2.392071e-01	0.000000e+00
2.657855e-01	0.000000e+00
2.923639e-01	0.000000e+00
3.189422e-01	0.000000e+00
3.455204e-01	0.000000e+00
3.720986e-01	0.000000e+00
3.986767e-01	0.000000e+00
4.252547e-01	0.000000e+00
4.518327e-01	0.000000e+00
4.784105e-01	0.000000e+00
5.049883e-01	1.216072e-37
5.315660e-01	1.837934e-30
5.581435e-01	3.392032e-40
5.847210e-01	0.000000e+00
6.112983e-01	0.000000e+00
6.378756e-01	0.000000e+00
6.644527e-01	0.000000e+00
6.910297e-01	0.000000e+00
7.176065e-01	0.000000e+00
7.441832e-01	0.000000e+00
7.707598e-01	0.000000e+00
7.973362e-01	0.000000e+00
8.239125e-01	0.000000e+00
8.504886e-01	0.000000e+00
8.770645e-01	0.000000e+00
9.036403e-01	0.000000e+00
9.302159e-01	0.000000e+00
9.567913e-01	0.000000e+00
9.833665e-01	8.552525e-35
1.009942e+00	1.791002e-02
1.036516e+00	2.847988e-03
1.063091e+00	1.655578e-01
1.089666e+00	3.370748e-12
1.116240e+00	0.000000e+00
1.142814e+00	0.000000e+00
1.169388e+00	0.000000e+00
1.195961e+00	0.000000e+00
1.222535e+00	2.910234e-02
1.249108e+00	7.561165e-08
1.275681e+00	4.160208e-33
1.302253e+00	1.521621e-34
1.328826e+00	0.000000e+00
1.355398e+00	0.000000e+00
1.381970e+00	0.000000e+00
1.408541e+00	0.000000e+00
1.435113e+00	0.000000e+00
1.461684e+00	0.000000e+00
1.488254e+00	0.000000e+00
1.514825e+00	0.000000e+00
1.541395e+00	0.000000e+00
1.567965e+00	3.995522e-37
1.594535e+00	7.685742e-32
1.621104e+00	2.566842e-34
1.647673e+00	1.377985e-32
1.674242e+00	2.898843e-03
1.700810e+00	6.190251e-07
1.727378e+00	8.951381e-01
1.753946e+00	5.901495e-08
1.780513e+00	0.000000e+00
1.807080e+00	0.000000e+00
1.833647e+00	0.000000e+00
1.860213e+00	0.000000e+00
1.886779e+00	0.000000e+00
1.913344e+00	1.142792e-05
1.939910e+00	4.179832e-07
1.966475e+00	1.428481e-11
1.993039e+00	3.698874e-02
2.019603e+00	5.338065e-08
2.046167e+00	4.681295e-01
2.072730e+00	7.460222e-05
2.099293e+00	8.316870e-03
2.125856e+00	5.592007e-02
2.152418e+00	1.569595e-34
2.178979e+00	2.231754e-32
2.205541e+00	0.000000e+00
2.232101e+00	0.000000e+00
2.258662e+00	8.998719e-12
2.285222e+00	2.116267e-01
2.311781e+00	2.566969e-03
2.338340e+00	1.390024e-34
2.364899e+00	1.816168e-33
2.391457e+00	0.000000e+00
2.418015e+00	0.000000e+00
2.444572e+00	9.245964e-03
2.471129e+00	7.778721e-05
2.497685e+00	0.000000e+00
2.524241e+00	1.474113e-10
2.550797e+00	4.210875e-02
2.577352e+00	2.804947e-03
2.603906e+00	2.433185e-04
2.630460e+00	3.179133e-03
2.657013e+00	2.414050e-32
2.683566e+00	2.442595e-04
2.710118e+00	4.494558e-04
2.736670e+00	2.653001e-03
2.763221e+00	0.000000e+00
2.789772e+00	2.253114e-03
2.816322e+00	2.091153e-06
2.842872e+00	0.000000e+00
2.869421e+00	0.000000e+00
2.895970e+00	3.358338e-11
2.922518e+00	4.600959e-03
2.949065e+00	7.697180e-12
2.975612e+00	8.903393e-36
3.002159e+00	4.822580e-06
3.028704e+00	3.842004e-01
3.055250e+00	2.610448e-02
3.081794e+00	4.579191e-04
3.108338e+00	4.435574e-06
3.134882e+00	1.954773e-06
3.161424e+00	4.920154e-05
3.187967e+00	3.949032e-04
3.214508e+00	6.378205e-02
3.241049e+00	1.159941e-05
3.267590e+00	7.271707e-05
3.294129e+00	4.675587e-01
3.320668e+00	8.629113e-11
3.347207e+00	2.237969e-06
3.373745e+00	5.046051e-02
3.400282e+00	5.591645e-05
3.426818e+00	3.510032e-04
3.453354e+00	3.704543e-02
3.479889e+00	5.094859e-08
3.506424e+00	1.166219e-03
3.532958e+00	1.802775e-02
3.559491e+00	6.306580e-09
3.586023e+00	8.389258e-32
3.612555e+00	1.186598e-03
3.639086e+00	1.961626e-04
3.665617e+00	3.493117e-02
3.692146e+00	2.395779e-03
3.718675e+00	7.958147e-09
3.745203e+00	4.330367e-07
3.771731e+00	2.021158e-03
3.798258e+00	1.891431e-33
3.824784e+00	7.018760e-10
3.851309e+00	1.060797e-02
3.877834e+00	1.814045e-01
3.904358e+00	1.270826e-01
3.930881e+00	7.154443e-05
3.957403e+00	8.933752e-33
3.983925e+00	4.495221e-02
4.010446e+00	4.866471e-03
4.036966e+00	2.720386e-03
4.063485e+00	3.815088e-03
4.090004e+00	3.198631e-04
4.116521e+00	4.343876e-03
4.143038e+00	4.852178e-03
4.169554e+00	1.289364e-04
4.196070e+00	9.460568e-02
4.222584e+00	4.067528e-02
4.249098e+00	9.662337e-03
4.275611e+00	5.546312e-02
4.302123e+00	1.230501e-06
4.328634e+00	3.957389e-05
4.355145e+00	2.168626e-02
4.381654e+00	2.359065e-08
4.408163e+00	5.120743e-03
4.434671e+00	5.692087e-06
4.461178e+00	1.551092e-02
4.487684e+00	1.065109e-02
4.514190e+00	3.694396e-04
4.540694e+00	7.414238e-07
4.567198e+00	1.797702e-04
4.593700e+00	1.675759e-02
4.620202e+00	3.804553e-07
4.646703e+00	5.742067e-04
4.673203e+00	1.225845e-07
4.699702e+00	9.484816e-04
4.726201e+00	2.024865e-07
4.752698e+00	4.155068e-32
4.779194e+00	2.756479e-32
4.805690e+00	6.178318e-11
4.832185e+00	8.464487e-03
4.858678e+00	2.666042e-04
4.885171e+00	4.917765e-02
4.911663e+00	1.183730e-02
4.938154e+00	1.410624e-02
4.964644e+00	3.452002e-02
4.991132e+00	2.275847e-09
5.017620e+00	7.774149e-03
5.044108e+00	2.080703e-03
5.070594e+00	3.233896e-03
5.097079e+00	1.116023e-02
5.123563e+00	2.708449e-03
5.150046e+00	1.064835e-02
5.176528e+00	3.955012e-02
5.203009e+00	9.189617e-04
5.229489e+00	1.426606e-03
5.255968e+00	6.732396e-03
5.282447e+00	3.153804e-06
5.308924e+00	6.774626e-03
5.335400e+00	7.901223e-08
5.361875e+00	3.179102e-02
5.388349e+00	3.136508e-02
5.414822e+00	1.788491e-06
5.441294e+00	4.974989e-03
5.467765e+00	8.179910e-05
5.494235e+00	1.024362e-03
5.520703e+00	4.514590e-04
5.547171e+00	1.472431e-02
5.573638e+00	2.738824e-04
5.600104e+00	1.389622e-05
5.626568e+00	7.889853e-04
5.653032e+00	1.032610e-13
5.679494e+00	5.578791e-04
5.705955e+00	1.432646e-03
5.732415e+00	2.996252e-04
5.758874e+00	3.234945e-03
5.785332e+00	1.578184e-03
5.811789e+00	2.600841e-05
5.838245e+00	1.357233e-02
5.864700e+00	2.001489e-08
5.891153e+00	7.880949e-03
5.917606e+00	2.355375e-02
5.944057e+00	2.947583e-04
5.970507e+00	3.294533e-04
5.996956e+00	1.773460e-04
6.023404e+00	3.700383e-03
6.049850e+00	2.372029e-02
6.076296e+00	7.870882e-02
6.102740e+00	4.397781e-03
6.129183e+00	2.286237e-02
6.155625e+00	2.374505e-04
6.182066e+00	7.150068e-03
6.208506e+00	9.082619e-04
6.234944e+00	2.847342e-02
6.261381e+00	5.986264e-03
6.287817e+00	1.795866e-03
6.314252e+00	1.402033e-05
6.340685e+00	9.137487e-03
6.367118e+00	3.656244e-03
6.393549e+00	1.980452e-08
6.419979e+00	1.547015e-04
6.446408e+00	1.250024e-02
6.472835e+00	1.054935e-11
6.499261e+00	1.235130e-04
6.525686e+00	2.053399e-02
6.552110e+00	3.913378e-07
6.578532e+00	1.455212e-02
6.604953e+00	1.182312e-05
6.631373e+00	4.718771e-05
6.657792e+00	3.039712e-03
6.684209e+00	1.447869e-02
6.710625e+00	2.277200e-03
6.737040e+00	6.532230e-04
6.763454e+00	3.476932e-02
6.789866e+00	3.477103e-03
6.816277e+00	1.133533e-02
6.842686e+00	3.089624e-03
6.869095e+00	2.478232e-04
6.895501e+00	3.055752e-02
6.921907e+00	4.286115e-03
6.948311e+00	2.396394e-03
6.974714e+00	1.718046e-03
7.001116e+00	1.244955e-04
7.027516e+00	2.133915e-02
7.053915e+00	1.773477e-02
7.080313e+00	1.921332e-02
7.106709e+00	3.447162e-03
7.133104e+00	1.431572e-07
7.159497e+00	9.506202e-04
7.185889e+00	8.073092e-05
7.212280e+00	2.949487e-04
7.238669e+00	1.085832e-02
7.265057e+00	4.165608e-02
7.291444e+00	6.582224e-04
7.317829e+00	2.480735e-03
7.344213e+00	4.938778e-05
7.370595e+00	5.071968e-04
7.396976e+00	1.830027e-02
7.423355e+00	3.261558e-03
7.449733e+00	1.401193e-02
7.476110e+00	1.921120e-03
7.502485e+00	6.335596e-04
7.528859e+00	1.480282e-02
7.555231e+00	9.580567e-03
7.581602e+00	1.272647e-03
7.607971e+00	2.052393e-03
7.634339e+00	2.482099e-02
7.660706e+00	3.492930e-04
7.687071e+00	8.397773e-04
7.713434e+00	1.514010e-04
7.739796e+00	1.425241e-04
7.766157e+00	1.036502e-03
7.792516e+00	1.753885e-02
7.818874e+00	5.674377e-03
7.845230e+00	8.613401e-03
7.871584e+00	8.641270e-03
7.897937e+00	5.045511e-03
7.915837e+00	1.063687e-06