File: cif_pxrd_calculator/example/txt/iq/li0.5tio2_Imma_36449.txt
# Q [Å^-1]	I_scaled [a.u.]
0.000000e+00	0.000000e+00
2.657864e-02	0.000000e+00
5.315727e-02	0.000000e+00
7.973589e-02	0.000000e+00
1.063145e-01	0.000000e+00
1.328931e-01	0.000000e+00
1.594717e-01	0.000000e+00
1.860502e-01	0.000000e+00
2.126287e-01	0.000000e+00
2.392071e-01	0.000000e+00
2.657855e-01	0.000000e+00
2.923639e-01	0.000000e+00
3.189422e-01	0.000000e+00
3.455204e-01	0.000000e+00
3.720986e-01	0.000000e+00
3.986767e-01	0.000000e+00
4.252547e-01	0.000000e+00
4.518327e-01	0.000000e+00
4.784105e-01	0.000000e+00
5.049883e-01	0.000000e+00
5.315660e-01	0.000000e+00
5.581435e-01	0.000000e+00
5.847210e-01	0.000000e+00
6.112983e-01	0.000000e+00
6.378756e-01	0.000000e+00
6.644527e-01	0.000000e+00
6.910297e-01	0.000000e+00
7.176065e-01	0.000000e+00
7.441832e-01	0.000000e+00
7.707598e-01	0.000000e+00
7.973362e-01	0.000000e+00
8.239125e-01	0.000000e+00
8.504886e-01	0.000000e+00
8.770645e-01	0.000000e+00
9.036403e-01	0.000000e+00
9.302159e-01	0.000000e+00
9.567913e-01	0.000000e+00
9.833665e-01	0.000000e+00
1.009942e+00	0.000000e+00
1.036516e+00	0.000000e+00
1.063091e+00	0.000000e+00
1.089666e+00	0.000000e+00
1.116240e+00	0.000000e+00
1.142814e+00	0.000000e+00
1.169388e+00	0.000000e+00
1.195961e+00	0.000000e+00
1.222535e+00	0.000000e+00
1.249108e+00	0.000000e+00
1.275681e+00	0.000000e+00
1.302253e+00	0.000000e+00
1.328826e+00	0.000000e+00
1.355398e+00	0.000000e+00
1.381970e+00	6.089547e-03
1.408541e+00	1.434165e-07
1.435113e+00	0.000000e+00
1.461684e+00	0.000000e+00
1.488254e+00	0.000000e+00
1.514825e+00	9.870712e-41
1.541395e+00	1.352298e-32
1.567965e+00	2.262329e-41
1.594535e+00	0.000000e+00
1.621104e+00	1.892574e-42
1.647673e+00	1.021799e-32
1.674242e+00	6.854969e-04
1.700810e+00	3.893807e-02
1.727378e+00	0.000000e+00
1.753946e+00	0.000000e+00
1.780513e+00	1.058883e-01
1.807080e+00	2.049125e-04
1.833647e+00	0.000000e+00
1.860213e+00	0.000000e+00
1.886779e+00	0.000000e+00
1.913344e+00	0.000000e+00
1.939910e+00	0.000000e+00
1.966475e+00	0.000000e+00
1.993039e+00	0.000000e+00
2.019603e+00	0.000000e+00
2.046167e+00	2.560972e-41
2.072730e+00	4.283381e-32
2.099293e+00	2.134505e-35
2.125856e+00	2.838868e-42
2.152418e+00	1.389348e-31
2.178979e+00	8.303026e-38
2.205541e+00	0.000000e+00
2.232101e+00	8.949800e-73
2.258662e+00	5.880572e-65
2.285222e+00	4.718295e-74
2.311781e+00	0.000000e+00
2.338340e+00	2.033724e-38
2.364899e+00	7.070126e-32
2.391457e+00	3.001385e-42
2.418015e+00	0.000000e+00
2.444572e+00	0.000000e+00
2.471129e+00	0.000000e+00
2.497685e+00	0.000000e+00
2.524241e+00	0.000000e+00
2.550797e+00	0.000000e+00
2.577352e+00	1.854398e-03
2.603906e+00	1.281933e-03
2.630460e+00	3.761939e-06
2.657013e+00	7.198759e-02
2.683566e+00	5.918843e-11
2.710118e+00	0.000000e+00
2.736670e+00	0.000000e+00
2.763221e+00	4.970025e-03
2.789772e+00	3.435746e-03
2.816322e+00	0.000000e+00
2.842872e+00	0.000000e+00
2.869421e+00	0.000000e+00
2.895970e+00	0.000000e+00
2.922518e+00	0.000000e+00
2.949065e+00	0.000000e+00
2.975612e+00	0.000000e+00
3.002159e+00	0.000000e+00
3.028704e+00	0.000000e+00
3.055250e+00	8.014253e-10
3.081794e+00	4.773342e-01
3.108338e+00	3.471693e-09
3.134882e+00	6.861066e-40
3.161424e+00	1.041148e-32
3.187967e+00	6.035873e-35
3.214508e+00	5.363356e-35
3.241049e+00	7.007613e-34
3.267590e+00	0.000000e+00
3.294129e+00	1.642003e-01
3.320668e+00	1.854686e-06
3.347207e+00	8.873260e-40
3.373745e+00	8.756047e-04
3.400282e+00	4.299717e-08
3.426818e+00	0.000000e+00
3.453354e+00	7.957413e-36
3.479889e+00	1.967042e-33
3.506424e+00	1.124642e-34
3.532958e+00	0.000000e+00
3.559491e+00	1.442862e-01
3.586023e+00	6.310838e-03
3.612555e+00	1.489625e-43
3.639086e+00	1.676901e-33
3.665617e+00	2.305140e-40
3.692146e+00	3.030038e-04
3.718675e+00	3.958964e-03
3.745203e+00	4.770195e-35
3.771731e+00	1.829307e-09
3.798258e+00	5.764677e-02
3.824784e+00	5.021723e-05
3.851309e+00	2.585680e-02
3.877834e+00	5.385523e-38
3.904358e+00	1.244404e-32
3.930881e+00	1.056500e-42
3.957403e+00	0.000000e+00
3.983925e+00	0.000000e+00
4.010446e+00	0.000000e+00
4.036966e+00	0.000000e+00
4.063485e+00	8.711580e-03
4.090004e+00	9.839957e-08
4.116521e+00	7.036898e-38
4.143038e+00	1.288393e-01
4.169554e+00	3.001802e-03
4.196070e+00	8.664453e-02
4.222584e+00	6.951950e-11
4.249098e+00	0.000000e+00
4.275611e+00	0.000000e+00
4.302123e+00	1.380213e-02
4.328634e+00	1.161187e-04
4.355145e+00	0.000000e+00
4.381654e+00	0.000000e+00
4.408163e+00	0.000000e+00
4.434671e+00	3.110633e-32
4.461178e+00	6.045023e-33
4.487684e+00	1.793426e-10
4.514190e+00	2.227207e-01
4.540694e+00	3.377513e-09
4.567198e+00	2.015160e-32
4.593700e+00	6.144587e-35
4.620202e+00	2.729009e-33
4.646703e+00	5.277271e-12
4.673203e+00	2.849195e-02
4.699702e+00	2.073784e-09
4.726201e+00	3.514273e-03
4.752698e+00	3.680630e-05
4.779194e+00	3.223390e-33
4.805690e+00	1.300990e-35
4.832185e+00	6.774637e-34
4.858678e+00	2.520120e-33
4.885171e+00	1.845982e-39
4.911663e+00	5.334353e-04
4.938154e+00	3.342701e-03
4.964644e+00	7.456625e-33
4.991132e+00	8.891645e-03
5.017620e+00	3.511844e-04
5.044108e+00	2.421422e-04
5.070594e+00	2.186262e-02
5.097079e+00	3.353085e-02
5.123563e+00	1.662058e-04
5.150046e+00	1.701362e-08
5.176528e+00	3.357844e-03
5.203009e+00	8.724113e-09
5.229489e+00	1.145194e-32
5.255968e+00	8.329096e-41
5.282447e+00	2.321204e-05
5.308924e+00	2.832247e-02
5.335400e+00	4.239343e-09
5.361875e+00	1.279623e-02
5.388349e+00	3.100546e-07
5.414822e+00	3.123870e-38
5.441294e+00	2.368964e-32
5.467765e+00	0.000000e+00
5.494235e+00	0.000000e+00
5.520703e+00	1.461381e-33
5.547171e+00	8.946316e-03
5.573638e+00	4.846439e-08
5.600104e+00	4.905477e-35
5.626568e+00	4.896470e-05
5.653032e+00	3.384898e-05
5.679494e+00	6.739668e-33
5.705955e+00	1.422808e-05
5.732415e+00	1.685129e-03
5.758874e+00	1.505912e-08
5.785332e+00	5.775392e-03
5.811789e+00	4.424062e-37
5.838245e+00	1.294421e-33
5.864700e+00	7.277403e-03
5.891153e+00	2.086765e-04
5.917606e+00	0.000000e+00
5.944057e+00	0.000000e+00
5.970507e+00	1.026610e-06
5.996956e+00	1.117096e-02
6.023404e+00	1.001700e-07
6.049850e+00	3.942397e-02
6.076296e+00	1.079596e-02
6.102740e+00	0.000000e+00
6.129183e+00	3.641911e-05
6.155625e+00	3.132615e-03
6.182066e+00	3.447275e-04
6.208506e+00	1.366908e-06
6.234944e+00	4.333484e-32
6.261381e+00	7.181239e-36
6.287817e+00	0.000000e+00
6.314252e+00	1.427187e-04
6.340685e+00	1.222577e-03
6.367118e+00	1.028566e-05
6.393549e+00	3.433732e-10
6.419979e+00	2.257654e-02
6.446408e+00	1.783268e-03
6.472835e+00	8.084035e-04
6.499261e+00	9.048492e-34
6.525686e+00	1.909086e-33
6.552110e+00	2.754909e-33
6.578532e+00	1.036837e-07
6.604953e+00	9.146542e-03
6.631373e+00	1.434301e-06
6.657792e+00	1.143152e-02
6.684209e+00	4.943224e-09
6.710625e+00	6.573049e-03
6.737040e+00	4.833649e-05
6.763454e+00	2.556582e-02
6.789866e+00	2.464229e-02
6.816277e+00	7.877442e-03
6.842686e+00	0.000000e+00
6.869095e+00	0.000000e+00
6.895501e+00	5.798207e-07
6.921907e+00	1.298835e-03
6.948311e+00	4.488984e-04
6.974714e+00	6.616707e-06
7.001116e+00	3.406937e-03
7.027516e+00	4.879770e-33
7.053915e+00	6.850933e-34
7.080313e+00	8.469113e-04
7.106709e+00	3.417682e-06
7.133104e+00	1.675231e-04
7.159497e+00	8.814472e-02
7.185889e+00	1.197030e-10
7.212280e+00	2.394867e-07
7.238669e+00	5.360922e-04
7.265057e+00	3.048241e-02
7.291444e+00	8.060730e-03
7.317829e+00	1.456637e-03
7.344213e+00	9.601677e-11
7.370595e+00	0.000000e+00
7.396976e+00	1.602163e-05
7.423355e+00	1.343971e-04
7.449733e+00	5.684250e-05
7.476110e+00	7.032208e-03
7.502485e+00	1.790865e-07
7.528859e+00	1.579803e-02
7.555231e+00	3.176163e-38
7.581602e+00	8.237328e-05
7.607971e+00	2.167103e-03
7.634339e+00	4.857741e-08
7.660706e+00	1.953176e-10
7.687071e+00	2.951971e-03
7.713434e+00	7.589329e-10
7.739796e+00	2.636494e-03
7.766157e+00	4.843021e-04
7.792516e+00	2.783839e-02
7.818874e+00	1.662219e-04
7.845230e+00	1.184587e-32
7.871584e+00	2.600103e-39
7.897937e+00	1.504268e-34
7.915837e+00	2.658514e-33