File: cif_pxrd_calculator/example/txt/iq/li0.5tio2_li0.5tio2_8262.txt
# Q [Å^-1]	I_scaled [a.u.]
0.000000e+00	0.000000e+00
2.657864e-02	0.000000e+00
5.315727e-02	0.000000e+00
7.973589e-02	0.000000e+00
1.063145e-01	0.000000e+00
1.328931e-01	0.000000e+00
1.594717e-01	0.000000e+00
1.860502e-01	0.000000e+00
2.126287e-01	0.000000e+00
2.392071e-01	0.000000e+00
2.657855e-01	0.000000e+00
2.923639e-01	0.000000e+00
3.189422e-01	0.000000e+00
3.455204e-01	0.000000e+00
3.720986e-01	0.000000e+00
3.986767e-01	0.000000e+00
4.252547e-01	0.000000e+00
4.518327e-01	0.000000e+00
4.784105e-01	0.000000e+00
5.049883e-01	0.000000e+00
5.315660e-01	0.000000e+00
5.581435e-01	0.000000e+00
5.847210e-01	0.000000e+00
6.112983e-01	0.000000e+00
6.378756e-01	9.485263e-36
6.644527e-01	1.924688e-31
6.910297e-01	0.000000e+00
7.176065e-01	0.000000e+00
7.441832e-01	0.000000e+00
7.707598e-01	0.000000e+00
7.973362e-01	0.000000e+00
8.239125e-01	0.000000e+00
8.504886e-01	0.000000e+00
8.770645e-01	0.000000e+00
9.036403e-01	0.000000e+00
9.302159e-01	0.000000e+00
9.567913e-01	0.000000e+00
9.833665e-01	0.000000e+00
1.009942e+00	0.000000e+00
1.036516e+00	0.000000e+00
1.063091e+00	0.000000e+00
1.089666e+00	0.000000e+00
1.116240e+00	0.000000e+00
1.142814e+00	0.000000e+00
1.169388e+00	0.000000e+00
1.195961e+00	0.000000e+00
1.222535e+00	6.254087e-44
1.249108e+00	3.060764e-33
1.275681e+00	1.829174e-39
1.302253e+00	7.588216e-05
1.328826e+00	4.755053e-04
1.355398e+00	0.000000e+00
1.381970e+00	0.000000e+00
1.408541e+00	3.100337e-01
1.435113e+00	1.522442e-05
1.461684e+00	0.000000e+00
1.488254e+00	0.000000e+00
1.514825e+00	0.000000e+00
1.541395e+00	0.000000e+00
1.567965e+00	0.000000e+00
1.594535e+00	0.000000e+00
1.621104e+00	0.000000e+00
1.647673e+00	0.000000e+00
1.674242e+00	0.000000e+00
1.700810e+00	0.000000e+00
1.727378e+00	0.000000e+00
1.753946e+00	0.000000e+00
1.780513e+00	0.000000e+00
1.807080e+00	3.823276e-03
1.833647e+00	3.216560e-05
1.860213e+00	0.000000e+00
1.886779e+00	0.000000e+00
1.913344e+00	0.000000e+00
1.939910e+00	0.000000e+00
1.966475e+00	1.243178e-32
1.993039e+00	1.153815e-35
2.019603e+00	0.000000e+00
2.046167e+00	0.000000e+00
2.072730e+00	0.000000e+00
2.099293e+00	0.000000e+00
2.125856e+00	9.223361e-34
2.152418e+00	1.969049e-37
2.178979e+00	0.000000e+00
2.205541e+00	1.683757e-40
2.232101e+00	1.002856e-31
2.258662e+00	7.293862e-40
2.285222e+00	0.000000e+00
2.311781e+00	6.530241e-10
2.338340e+00	3.889455e-01
2.364899e+00	2.828834e-09
2.391457e+00	0.000000e+00
2.418015e+00	0.000000e+00
2.444572e+00	1.195660e-12
2.471129e+00	1.345978e-02
2.497685e+00	2.942497e-02
2.524241e+00	4.480981e-05
2.550797e+00	2.575663e-02
2.577352e+00	5.523715e-05
2.603906e+00	1.788208e-06
2.630460e+00	1.581694e-02
2.657013e+00	4.533461e-09
2.683566e+00	0.000000e+00
2.710118e+00	0.000000e+00
2.736670e+00	0.000000e+00
2.763221e+00	0.000000e+00
2.789772e+00	4.010684e-03
2.816322e+00	1.417921e-03
2.842872e+00	1.271187e-04
2.869421e+00	0.000000e+00
2.895970e+00	6.654392e-07
2.922518e+00	1.350266e-02
2.949065e+00	0.000000e+00
2.975612e+00	0.000000e+00
3.002159e+00	0.000000e+00
3.028704e+00	0.000000e+00
3.055250e+00	0.000000e+00
3.081794e+00	0.000000e+00
3.108338e+00	0.000000e+00
3.134882e+00	0.000000e+00
3.161424e+00	9.264386e-02
3.187967e+00	6.880981e-02
3.214508e+00	4.536507e-09
3.241049e+00	0.000000e+00
3.267590e+00	1.099821e-38
3.294129e+00	4.505009e-32
3.320668e+00	3.281660e-42
3.347207e+00	2.693114e-04
3.373745e+00	3.979290e-05
3.400282e+00	1.077259e-03
3.426818e+00	0.000000e+00
3.453354e+00	0.000000e+00
3.479889e+00	0.000000e+00
3.506424e+00	4.758891e-06
3.532958e+00	1.311336e-02
3.559491e+00	4.748873e-04
3.586023e+00	1.182095e-11
3.612555e+00	7.040951e-03
3.639086e+00	1.219262e-01
3.665617e+00	0.000000e+00
3.692146e+00	0.000000e+00
3.718675e+00	0.000000e+00
3.745203e+00	4.235454e-34
3.771731e+00	1.404251e-34
3.798258e+00	2.017817e-06
3.824784e+00	1.178074e-03
3.851309e+00	6.491866e-04
3.877834e+00	0.000000e+00
3.904358e+00	2.266301e-35
3.930881e+00	2.358562e-07
3.957403e+00	2.295307e-03
3.983925e+00	2.278773e-02
4.010446e+00	4.205630e-12
4.036966e+00	0.000000e+00
4.063485e+00	0.000000e+00
4.090004e+00	8.857697e-11
4.116521e+00	2.293593e-01
4.143038e+00	5.897564e-03
4.169554e+00	1.674958e-11
4.196070e+00	6.963338e-07
4.222584e+00	1.558790e-03
4.249098e+00	3.539044e-02
4.275611e+00	1.347224e-02
4.302123e+00	2.221079e-06
4.328634e+00	1.036668e-02
4.355145e+00	1.328654e-04
4.381654e+00	7.547114e-03
4.408163e+00	0.000000e+00
4.434671e+00	1.184876e-34
4.461178e+00	1.130728e-03
4.487684e+00	1.484580e-01
4.514190e+00	2.839609e-03
4.540694e+00	8.129735e-10
4.567198e+00	2.801860e-08
4.593700e+00	5.153599e-03
4.620202e+00	1.472644e-06
4.646703e+00	8.086038e-04
4.673203e+00	8.734209e-03
4.699702e+00	2.250890e-08
4.726201e+00	2.333616e-10
4.752698e+00	7.353921e-03
4.779194e+00	3.182611e-02
4.805690e+00	6.479781e-13
4.832185e+00	0.000000e+00
4.858678e+00	2.127237e-02
4.885171e+00	2.178037e-06
4.911663e+00	0.000000e+00
4.938154e+00	1.088912e-03
4.964644e+00	4.393706e-06
4.991132e+00	1.142081e-02
5.017620e+00	9.800435e-03
5.044108e+00	3.236697e-03
5.070594e+00	1.104893e-03
5.097079e+00	1.581980e-09
5.123563e+00	2.640540e-03
5.150046e+00	1.485390e-03
5.176528e+00	1.376998e-03
5.203009e+00	3.249160e-10
5.229489e+00	2.381010e-03
5.255968e+00	5.690385e-04
5.282447e+00	1.666096e-05
5.308924e+00	1.683043e-06
5.335400e+00	3.767497e-03
5.361875e+00	3.344176e-11
5.388349e+00	1.162587e-04
5.414822e+00	1.701315e-02
5.441294e+00	1.547717e-03
5.467765e+00	2.641464e-05
5.494235e+00	3.361654e-03
5.520703e+00	4.161424e-05
5.547171e+00	6.617119e-06
5.573638e+00	2.209762e-12
5.600104e+00	6.991564e-02
5.626568e+00	2.474117e-07
5.653032e+00	3.516824e-03
5.679494e+00	1.022808e-02
5.705955e+00	6.594262e-07
5.732415e+00	3.380288e-04
5.758874e+00	0.000000e+00
5.785332e+00	1.153575e-03
5.811789e+00	4.812515e-03
5.838245e+00	1.693370e-02
5.864700e+00	4.974314e-04
5.891153e+00	0.000000e+00
5.917606e+00	1.299345e-10
5.944057e+00	3.419864e-02
5.970507e+00	4.884183e-09
5.996956e+00	1.200417e-02
6.023404e+00	1.811050e-02
6.049850e+00	6.907256e-03
6.076296e+00	5.102947e-09
6.102740e+00	0.000000e+00
6.129183e+00	0.000000e+00
6.155625e+00	0.000000e+00
6.182066e+00	3.656257e-12
6.208506e+00	1.974010e-02
6.234944e+00	1.301432e-09
6.261381e+00	3.537469e-03
6.287817e+00	7.586510e-04
6.314252e+00	6.213266e-05
6.340685e+00	8.521080e-04
6.367118e+00	2.386043e-03
6.393549e+00	6.497982e-03
6.419979e+00	3.074078e-02
6.446408e+00	4.875340e-05
6.472835e+00	3.962019e-04
6.499261e+00	5.838602e-10
6.525686e+00	2.050177e-03
6.552110e+00	1.092915e-02
6.578532e+00	1.368472e-02
6.604953e+00	2.558370e-03
6.631373e+00	1.990931e-05
6.657792e+00	5.733780e-03
6.684209e+00	2.680067e-08
6.710625e+00	2.277344e-04
6.737040e+00	1.060463e-03
6.763454e+00	1.514527e-03
6.789866e+00	2.100279e-03
6.816277e+00	1.311968e-02
6.842686e+00	1.758888e-12
6.869095e+00	2.678282e-05
6.895501e+00	1.198250e-02
6.921907e+00	1.471686e-02
6.948311e+00	3.846115e-10
6.974714e+00	7.496880e-09
7.001116e+00	2.606337e-02
7.027516e+00	3.428313e-04
7.053915e+00	4.784827e-04
7.080313e+00	2.116894e-03
7.106709e+00	8.068022e-05
7.133104e+00	2.815560e-02
7.159497e+00	1.637222e-03
7.185889e+00	4.613497e-34
7.212280e+00	3.238490e-05
7.238669e+00	2.029356e-04
7.265057e+00	1.647610e-03
7.291444e+00	1.351655e-04
7.317829e+00	2.780667e-02
7.344213e+00	8.347759e-03
7.370595e+00	1.383630e-03
7.396976e+00	5.737142e-03
7.423355e+00	6.287745e-03
7.449733e+00	2.061357e-02
7.476110e+00	6.517896e-10
7.502485e+00	2.478576e-05
7.528859e+00	4.579832e-03
7.555231e+00	2.021003e-04
7.581602e+00	1.365246e-03
7.607971e+00	8.943151e-03
7.634339e+00	5.006974e-04
7.660706e+00	3.732552e-04
7.687071e+00	9.613705e-03
7.713434e+00	3.080063e-03
7.739796e+00	2.731392e-05
7.766157e+00	3.950169e-03
7.792516e+00	8.289093e-07
7.818874e+00	2.768779e-05
7.845230e+00	1.049924e-02
7.871584e+00	7.047306e-03
7.897937e+00	2.594756e-03
7.915837e+00	3.941819e-06