File: asc_to_csv/example/asc/050121_LMO-p.asc
*TYPE		=  Raw
*CLASS		=  ASCII CLASS
*SAMPLE		=  050121_LMO-p.ras
*COMMENT	=
*FNAME		=  050121_LMO-p_Theta_2-Theta.asc
*DATE		=  05-Jan-21 12:55

*GROUP_COUNT	=  1
*GONIO		=  MiniFlex 300/600 +, 150
*ATTACHMENT	=  ASC-6
*ASC		=  0, 0, 0.000000, 0.000000
*FILTER		=  K-beta(x1)
*C_MONOCHRO	=  None, 0.000000
*SLIT_NAME	=  0, IHS
*SLIT_NAME	=  1, DS
*SLIT_NAME	=  2, SS
*SLIT_NAME	=  3, RS
*COUNTER	=  D/teX Ultra, 0
*POS_FORMAT	=  0
*SCAN_AXIS	=  2theta/theta
*MEAS_MODE	=  Continuous Scanning
*TARGET		=  29
*XRAY_CHAR	=  K-ALPHA
*WAVE_LENGTH1	=  1.54059
*WAVE_LENGTH2	=  1.54441
*THICKNESS	=  0, 0.000000
*MU		=  0, 0.000000
*SCAN_MODE	=  2theta/theta
*SPEED_DIM	=  sec./step
*XUNIT		=  deg.
*YUNIT		=  counts
*SCALE_MODE	=  1
*REP_COUNT	=  0
*SE_COUNT	=  0
*STD_MATERIAL	=  Unknown, Unknown, 0.000000, 0.000000, 0.000000, 0.000000, 0.000000, 0.000000
*LATT_CONS	=  0, Unknown, Unknown, 0.000000, 0.000000, 0.000000, 0.000000, 0.000000, 0.000000
*SEC_COUNT	=  1
*TSPEC_SIZE	=  0
*EXTRA_SIZE	=  0
*MEMO		=

*BEGIN
*GROUP		=  0
*START		=  3
*STOP		=  90
*STEP		=  0.02
*OFFSET		=  0.000000
*SPEED		=  0.24
*SLIT_SPEC	=  0, 10.0mm, 10, 0.000000
*SLIT_SPEC	=  1, 0.625deg, 0.625, 0.000000
*SLIT_SPEC	=  2, 13.0mm, 13, 0.000000
*SLIT_SPEC	=  3, 13.0mm, 13, 0.000000
*KV		=  40
*MA		=  15
*LOW		=  0.000000
*HIGH		=  0.000000
*CTEMPER	=  0, 0.000000
*CTEMPER	=  1, 0.000000
*CTEMPER	=  2, 0.000000
*PAREX		=  0, 0.000000
*PAREX		=  1, 0.000000
*PAREX		=  2, 0.000000
*PAREX		=  3, 0.000000
*PAREX		=  4, 0.000000
*PAREX		=  5, 0.000000
*PAREX		=  6, 0.000000
*PAREX		=  7, 0.000000
*PAREX		=  8, 0.000000
*PAREX		=  9, 0.000000
*PAREX		=  10, 0.000000
*PAREX		=  11, 0.000000
*PAREX		=  12, 0.000000
*PAREX		=  13, 0.000000
*PAREX		=  14, 0.000000
*PAREX		=  15, 0.000000
*FULL_SCALE	=  47785
*INDEX		=  0, 0, 0
*COUNT		=  4351
822, 836, 818, 805
807, 805, 768, 780
790, 745, 751, 763
750, 764, 766, 774
807, 806, 800, 813
752, 781, 809, 811
819, 807, 792, 793
843, 865, 900, 847
872, 887, 909, 898
897, 904, 919, 922
933, 959, 944, 960
988, 1002, 977, 957
955, 967, 986, 968
1039, 1040, 1006, 998
1022, 1056, 1044, 1080
1057, 1090, 1108, 1091
1071, 1070, 1073, 1123
1126, 1113, 1118, 1092
1174, 1178, 1169, 1174
1114, 1158, 1208, 1169
1211, 1218, 1204, 1192
1218, 1195, 1212, 1241
1209, 1233, 1232, 1243
1265, 1296, 1260, 1299
1280, 1268, 1305, 1317
1278, 1314, 1296, 1334
1346, 1280, 1303, 1362
1385, 1316, 1358, 1378
1370, 1358, 1368, 1397
1363, 1346, 1368, 1375
1366, 1376, 1392, 1393
1421, 1409, 1435, 1414
1420, 1404, 1423, 1406
1397, 1390, 1398, 1378
1420, 1394, 1383, 1355
1459, 1419, 1396, 1379
1389, 1379, 1354, 1406
1393, 1421, 1405, 1399
1411, 1401, 1403, 1461
1351, 1435, 1444, 1424
1366, 1364, 1325, 1317
1343, 1355, 1356, 1314
1339, 1333, 1328, 1363
1374, 1343, 1341, 1341
1319, 1343, 1324, 1302
1328, 1329, 1375, 1357
1400, 1376, 1332, 1368
1479, 1447, 1424, 1413
1691, 1707, 1739, 1762
9557, 9036, 8001, 6697
1736, 1722, 1646, 1607
1476, 1470, 1502, 1504
1419, 1435, 1426, 1382
1363, 1436, 1412, 1423
1345, 1379, 1371, 1434
1362, 1374, 1378, 1326
1380, 1425, 1356, 1354
1330, 1336, 1284, 1319
1301, 1365, 1342, 1338
1299, 1270, 1300, 1299
1239, 1273, 1261, 1220
1213, 1244, 1233, 1216
1232, 1262, 1252, 1224
1329, 1313, 1291, 1286
1175, 1186, 1167, 1139
1166, 1152, 1114, 1069
1067, 1073, 1089, 1089
1049, 1028, 1075, 1086
1023, 998, 1006, 1016
1029, 1021, 1015, 985
982, 988, 1007, 1030
971, 952, 939, 963
941, 935, 948, 948
911, 922, 920, 899
892, 895, 874, 859
868, 877, 860, 862
883, 882, 867, 865
873, 885, 876, 855
814, 841, 879, 872
837, 827, 802, 792
820, 831, 819, 814
825, 809, 802, 804
777, 815, 786, 771
767, 783, 792, 792
779, 779, 767, 779
758, 762, 788, 801
761, 749, 778, 778
762, 774, 776, 754
766, 782, 784, 797
732, 734, 746, 742
728, 747, 737, 715
719, 709, 712, 730
735, 694, 700, 716
755, 757, 786, 810
952, 891, 837, 792
749, 729, 703, 706
717, 725, 716, 764
689, 690, 729, 721
695, 731, 723, 721
687, 683, 691, 702
701, 671, 711, 711
734, 732, 735, 740
805, 782, 786, 799
1148, 1222, 1322, 1450
2831, 2548, 2273, 1998
922, 891, 888, 850
736, 739, 737, 697
717, 705, 728, 740
721, 707, 691, 705
1292, 1252, 1207, 1143
798, 815, 820, 817
668, 664, 677, 669
666, 680, 670, 653
674, 649, 681, 661
632, 638, 642, 641
664, 677, 687, 672
628, 636, 642, 666
642, 619, 643, 651
645, 630, 644, 624
664, 656, 620, 641
655, 622, 643, 659
636, 626, 633, 628
643, 654, 647, 657
647, 662, 663, 639
651, 684, 668, 636
678, 677, 651, 643
697, 730, 707, 698
922, 920, 965, 1050
3253, 3316, 3290, 3174
1515, 1417, 1322, 1299
786, 776, 752, 762
674, 652, 691, 673
693, 694, 686, 663
639, 626, 654, 656
648, 644, 652, 633
634, 640, 603, 608
626, 608, 606, 602
626, 625, 632, 611
623, 647, 646, 630
619, 613, 578, 596
626, 644, 668, 665
1078, 1115, 1127, 1109
778, 725, 716, 718
647, 640, 645, 624
614, 594, 604, 621
614, 611, 647, 662
598, 620, 625, 610
559, 573, 583, 609
587, 591, 607, 627
633, 624, 623, 634
607, 612, 617, 602
571, 577, 565, 574
556, 602, 609, 602
600, 594, 585, 596
595, 614, 621, 620
610, 595, 560, 549
580, 589, 592, 574
598, 616, 605, 593
598, 602, 609, 593
580, 569, 596, 595
588, 581, 577, 591
573, 605, 616, 605
628, 613, 610, 590
744, 717, 735, 729
598, 592, 580, 599
593, 600, 580, 570
605, 588, 578, 569
605, 597, 594, 597
600, 593, 561, 554
600, 579, 569, 586
623, 622, 635, 621
651, 686, 670, 677
905, 977, 1041, 1114
1143, 1067, 1025, 1020
737, 710, 692, 696
647, 620, 619, 607
603, 582, 568, 578
570, 578, 605, 580
564, 602, 623, 602
599, 588, 581, 570
629, 629, 604, 608
583, 602, 604, 590
592, 590, 592, 572
615, 591, 563, 564
624, 619, 608, 618
580, 571, 570, 563
584, 567, 602, 603
600, 613, 611, 608
610, 593, 602, 637
679, 687, 689, 718
1307, 1423, 1557, 1690
1438, 1385, 1300, 1229
830, 823, 783, 778
612, 616, 637, 650
622, 592, 601, 629
603, 599, 605, 616
649, 636, 649, 639
585, 624, 624, 617
627, 607, 586, 604
637, 631, 620, 600
706, 707, 741, 777
998, 1008, 1008, 962
741, 730, 689, 685
624, 626, 620, 630
561, 584, 607, 574
580, 600, 583, 571
577, 573, 588, 600
578, 567, 578, 562
574, 566, 592, 584
588, 565, 571, 574
563, 546, 568, 574
590, 584, 558, 540
567, 555, 552, 538
583, 568, 573, 545
580, 576, 546, 537
572, 576, 571, 556
563, 568, 559, 581
542, 552, 548, 541
591, 574, 570, 594
589, 576, 563, 580
562, 556, 590, 596
573, 592, 589, 584
601, 602, 587, 575
555, 570, 568, 562
570, 558, 580, 561
544, 548, 554, 574
571, 589, 610, 612
737, 739, 766, 751
692, 646, 607, 632
602, 618, 651, 641
692, 707, 707, 722
717, 705, 713, 720
608, 611, 612, 605
593, 595, 600, 585
587, 570, 571, 580
580, 580, 582, 556
553, 558, 572, 595
551, 559, 574, 568
557, 555, 568, 592
566, 584, 547, 549
585, 571, 565, 553
571, 580, 608, 590
567, 554, 579, 589
847, 855, 849, 821
750, 710, 705, 707
624, 623, 626, 624
578, 580, 571, 579
562, 568, 588, 572
564, 576, 589, 563
574, 569, 574, 551
579, 565, 554, 575
578, 605, 605, 614
634, 636, 643, 652
693, 707, 700, 695
637, 659, 646, 608
602, 598, 578, 584
524, 562, 568, 567
573, 552, 554, 554
557, 551, 552, 547
547, 529, 545, 572
551, 538, 535, 564
588, 582, 559, 527
556, 547, 547, 534
533, 540, 529, 540
561, 567, 606, 558
535, 560, 571, 589
558, 537, 539, 556
571, 529, 555, 553
572, 586, 557, 555
579, 572, 548, 551
534, 552, 566, 566
586, 558, 556, 571
575, 594, 594
*END

*EOF