File: asc_to_csv/example/asc/210721_NMC_first.asc
*TYPE		=  Raw
*CLASS		=  ASCII CLASS
*SAMPLE		=  210721_NMC_first
*COMMENT	=
*FNAME		=  210721_NMC_first_Theta_2-Theta.asc
*DATE		=  21-Jul-21 11:11

*GROUP_COUNT	=  1
*GONIO		=  MiniFlex 300/600 +, 150
*ATTACHMENT	=  ASC-6
*ASC		=  0, 0, 0.000000, 0.000000
*FILTER		=  K-beta(x1)
*C_MONOCHRO	=  None, 0.000000
*SLIT_NAME	=  0, IHS
*SLIT_NAME	=  1, DS +
*SLIT_NAME	=  2, SS
*SLIT_NAME	=  3, RS
*COUNTER	=  D/teX Ultra, 0
*POS_FORMAT	=  0
*SCAN_AXIS	=  2theta/theta
*MEAS_MODE	=  Continuous Scanning
*TARGET		=  29
*XRAY_CHAR	=  K-ALPHA
*WAVE_LENGTH1	=  1.54059
*WAVE_LENGTH2	=  1.54441
*THICKNESS	=  0, 0.000000
*MU		=  0, 0.000000
*SCAN_MODE	=  2theta/theta
*SPEED_DIM	=  sec./step
*XUNIT		=  deg.
*YUNIT		=  counts
*SCALE_MODE	=  1
*REP_COUNT	=  0
*SE_COUNT	=  0
*STD_MATERIAL	=  Unknown, Unknown, 0.000000, 0.000000, 0.000000, 0.000000, 0.000000, 0.000000
*LATT_CONS	=  0, Unknown, Unknown, 0.000000, 0.000000, 0.000000, 0.000000, 0.000000, 0.000000
*SEC_COUNT	=  1
*TSPEC_SIZE	=  0
*EXTRA_SIZE	=  0
*MEMO		=

*BEGIN
*GROUP		=  0
*START		=  5
*STOP		=  90
*STEP		=  0.02
*OFFSET		=  0.000000
*SPEED		=  0.12
*SLIT_SPEC	=  0, 10.0mm, 10, 0.000000
*SLIT_SPEC	=  1, 0.625deg, 0.625, 0.000000
*SLIT_SPEC	=  2, 13.0mm, 13, 0.000000
*SLIT_SPEC	=  3, 13.0mm, 13, 0.000000
*KV		=  40
*MA		=  15
*LOW		=  0.000000
*HIGH		=  0.000000
*CTEMPER	=  0, 0.000000
*CTEMPER	=  1, 0.000000
*CTEMPER	=  2, 0.000000
*PAREX		=  0, 0.000000
*PAREX		=  1, 0.000000
*PAREX		=  2, 0.000000
*PAREX		=  3, 0.000000
*PAREX		=  4, 0.000000
*PAREX		=  5, 0.000000
*PAREX		=  6, 0.000000
*PAREX		=  7, 0.000000
*PAREX		=  8, 0.000000
*PAREX		=  9, 0.000000
*PAREX		=  10, 0.000000
*PAREX		=  11, 0.000000
*PAREX		=  12, 0.000000
*PAREX		=  13, 0.000000
*PAREX		=  14, 0.000000
*PAREX		=  15, 0.000000
*FULL_SCALE	=  37260
*INDEX		=  0, 0, 0
*COUNT		=  4251
1178, 1179, 1197, 1188
1206, 1192, 1214, 1180
1165, 1153, 1180, 1183
1128, 1163, 1163, 1142
1169, 1134, 1145, 1183
1138, 1110, 1089, 1098
1149, 1117, 1126, 1117
1080, 1139, 1141, 1125
1075, 1097, 1091, 1128
1057, 1048, 1104, 1119
1070, 1061, 1041, 1040
1086, 1080, 1114, 1087
1040, 1040, 1059, 1049
1051, 1042, 1018, 1065
1090, 1075, 1019, 984
1061, 1058, 1045, 1048
1104, 1117, 1076, 1094
1096, 1111, 1123, 1114
1160, 1135, 1103, 1134
1154, 1154, 1174, 1156
1166, 1196, 1230, 1225
1236, 1258, 1243, 1255
1203, 1200, 1203, 1210
1285, 1235, 1217, 1244
1272, 1263, 1276, 1272
1285, 1255, 1226, 1293
1304, 1267, 1263, 1309
1308, 1306, 1297, 1251
1284, 1279, 1269, 1297
1306, 1313, 1309, 1297
1341, 1327, 1290, 1310
1316, 1323, 1346, 1314
1306, 1315, 1299, 1288
1276, 1264, 1288, 1322
1294, 1271, 1296, 1302
1306, 1263, 1287, 1323
1295, 1343, 1308, 1293
1317, 1295, 1318, 1312
1280, 1322, 1306, 1264
1283, 1313, 1309, 1299
1327, 1305, 1307, 1273
1273, 1286, 1331, 1314
1266, 1293, 1275, 1277
1277, 1286, 1316, 1289
1317, 1313, 1300, 1295
1297, 1306, 1288, 1295
1253, 1276, 1339, 1314
1290, 1281, 1310, 1252
1267, 1295, 1306, 1290
1269, 1267, 1312, 1301
1282, 1261, 1272, 1319
1265, 1264, 1270, 1293
1298, 1287, 1238, 1243
1295, 1260, 1263, 1311
1226, 1227, 1286, 1310
1277, 1252, 1262, 1288
1254, 1271, 1248, 1266
1283, 1284, 1245, 1261
1238, 1266, 1266, 1253
1312, 1291, 1264, 1237
1297, 1288, 1308, 1297
1253, 1272, 1297, 1279
1270, 1265, 1300, 1304
1245, 1259, 1299, 1323
1234, 1243, 1255, 1239
1270, 1281, 1282, 1282
1261, 1293, 1357, 1336
1290, 1278, 1264, 1275
1268, 1251, 1278, 1289
1294, 1292, 1271, 1259
1287, 1285, 1265, 1281
1298, 1280, 1280, 1298
1248, 1256, 1306, 1279
1295, 1302, 1267, 1242
1309, 1271, 1246, 1247
1271, 1279, 1266, 1253
1262, 1256, 1250, 1258
1297, 1294, 1281, 1288
1287, 1297, 1306, 1296
1263, 1254, 1248, 1288
1285, 1276, 1259, 1263
1290, 1267, 1259, 1287
1272, 1266, 1286, 1261
1288, 1300, 1270, 1273
1329, 1332, 1311, 1292
1298, 1278, 1255, 1250
1281, 1281, 1281, 1248
1293, 1290, 1284, 1273
1253, 1272, 1255, 1287
1260, 1236, 1254, 1282
1299, 1251, 1236, 1331
1295, 1273, 1249, 1240
1299, 1324, 1262, 1270
1276, 1278, 1329, 1342
1271, 1284, 1344, 1280
1296, 1294, 1262, 1281
1313, 1340, 1328, 1332
1441, 1433, 1499, 1520
2439, 2517, 2632, 2702
1911, 1853, 1755, 1628
1329, 1334, 1375, 1343
1360, 1300, 1271, 1294
1269, 1302, 1315, 1297
1255, 1244, 1233, 1225
1278, 1300, 1281, 1245
1263, 1284, 1303, 1280
1307, 1275, 1306, 1321
1312, 1350, 1354, 1322
1293, 1268, 1260, 1305
1272, 1258, 1255, 1276
1293, 1289, 1288, 1308
1291, 1322, 1328, 1281
1315, 1316, 1346, 1348
1325, 1354, 1327, 1307
1320, 1369, 1387, 1403
1493, 1525, 1580, 1556
2263, 2397, 2565, 2696
3598, 3556, 3463, 3327
1749, 1690, 1648, 1623
1321, 1362, 1354, 1319
1324, 1343, 1348, 1326
1337, 1306, 1305, 1299
1321, 1308, 1280, 1294
1386, 1383, 1406, 1446
1333, 1314, 1335, 1342
1301, 1280, 1254, 1297
1298, 1299, 1291, 1252
1304, 1284, 1288, 1309
1337, 1303, 1292, 1263
1269, 1327, 1330, 1332
1262, 1289, 1279, 1280
1279, 1266, 1279, 1300
1285, 1268, 1255, 1298
1258, 1276, 1286, 1292
1273, 1288, 1297, 1285
1263, 1287, 1324, 1281
1319, 1298, 1289, 1252
1266, 1295, 1273, 1258
1268, 1279, 1278, 1265
1283, 1327, 1298, 1235
1286, 1287, 1287, 1262
1277, 1263, 1234, 1274
1265, 1242, 1243, 1242
1297, 1285, 1266, 1275
1280, 1276, 1306, 1313
1232, 1247, 1264, 1307
1345, 1315, 1300, 1310
1295, 1258, 1273, 1283
1293, 1241, 1255, 1291
1260, 1261, 1244, 1246
1271, 1266, 1279, 1272
1247, 1257, 1281, 1292
1272, 1271, 1233, 1254
1227, 1233, 1245, 1251
1243, 1247, 1297, 1270
1274, 1266, 1261, 1286
1268, 1254, 1262, 1254
1268, 1235, 1246, 1244
1262, 1256, 1222, 1284
1254, 1287, 1298, 1240
1275, 1233, 1310, 1276
1233, 1249, 1236, 1258
1305, 1295, 1257, 1243
1290, 1302, 1246, 1214
1333, 1264, 1223, 1205
1255, 1261, 1261, 1272
1261, 1204, 1245, 1256
1215, 1265, 1280, 1234
1301, 1276, 1272, 1271
1284, 1322, 1291, 1255
1258, 1285, 1221, 1226
1302, 1314, 1268, 1293
1282, 1287, 1311, 1330
1313, 1281, 1284, 1325
1343, 1382, 1358, 1322
1532, 1510, 1494, 1518
1975, 1985, 2015, 2021
1925, 1883, 1912, 1824
1466, 1498, 1500, 1441
1292, 1341, 1395, 1368
1321, 1320, 1327, 1299
1266, 1272, 1286, 1297
1262, 1274, 1256, 1269
1279, 1258, 1251, 1281
1291, 1308, 1279, 1287
1265, 1285, 1257, 1236
1327, 1267, 1285, 1215
1272, 1309, 1287, 1269
1267, 1226, 1249, 1257
1298, 1292, 1245, 1236
1254, 1297, 1271, 1270
1225, 1272, 1291, 1299
1279, 1259, 1257, 1285
1264, 1286, 1270, 1252
1250, 1257, 1277, 1296
1241, 1257, 1274, 1274
1253, 1338, 1314, 1320
1276, 1229, 1303, 1263
1202, 1239, 1264, 1243
1216, 1268, 1281, 1267
1253, 1212, 1266, 1258
1270, 1253, 1270, 1246
1270, 1240, 1230, 1268
1234, 1277, 1252, 1300
1216, 1241, 1268, 1300
1314, 1263, 1269, 1279
1256, 1282, 1277, 1291
1330, 1310, 1288, 1284
1259, 1234, 1240, 1271
1252, 1264, 1263, 1253
1292, 1272, 1260, 1276
1292, 1299, 1280, 1257
1321, 1308, 1282, 1282
1359, 1375, 1365, 1347
1463, 1475, 1457, 1456
1475, 1441, 1491, 1485
1314, 1338, 1344, 1363
1324, 1280, 1300, 1287
1263, 1275, 1277, 1271
1279, 1280, 1281, 1264
1307, 1262, 1265, 1292
1281, 1272, 1239, 1277
1298, 1273, 1276, 1257
1330, 1337, 1339, 1326
1342, 1325, 1352, 1335
1329, 1332, 1359, 1362
1407, 1416, 1423, 1427
1447, 1432, 1439, 1461
1332, 1374, 1361, 1350
1271, 1253, 1297, 1313
1259, 1312, 1286, 1264
1251, 1281, 1280, 1285
1305, 1282, 1257, 1284
1289, 1276, 1278, 1282
1269, 1295, 1272, 1231
1308, 1293, 1238, 1229
1287, 1271, 1270, 1291
1251, 1250, 1248, 1222
1255, 1221, 1247, 1301
1308, 1294, 1278, 1269
1255, 1237, 1262, 1247
1254, 1277, 1256, 1258
1235, 1211, 1247, 1325
1268, 1270, 1257, 1243
1288, 1274, 1253, 1242
1289, 1278, 1287, 1306
1258, 1233, 1249, 1284
1247, 1241, 1243, 1286
1323, 1313, 1290, 1274
1269, 1263, 1249, 1270
1262, 1220, 1206, 1207
1210, 1262, 1283, 1256
1276, 1278, 1281, 1271
1268, 1278, 1268, 1270
1274, 1251, 1262, 1257
1248, 1221, 1224, 1257
1261, 1278, 1279, 1236
1276, 1224, 1226, 1219
1243, 1231, 1257, 1277
1286, 1282, 1256, 1259
1283, 1283, 1278, 1260
1268, 1245, 1269, 1254
1254, 1286, 1273, 1268
1275, 1283, 1268, 1240
1274, 1300, 1315, 1277
1235, 1245, 1254, 1236
1296, 1296, 1296
*END

*EOF